*****  MODTRAN3 Version 1.3  12/1/95  *****
0 CARD 1  *****T   1    3    1    0    0    0    0    0    0    0    0    0   -1   0.000  -1.00
0 CARD 2  *****    2    0    0    0    0    0     0.000     0.000     0.000     0.000     0.000
0 CARD 3  *****     0.001     0.000   180.000     0.000     0.000     0.000    0
0 CARD 4  *****       100      1500         2         2
0 PROGRAM WILL COMPUTE RADIANCE                
0 ATMOSPHERIC MODEL
          TEMPERATURE =    1     TROPICAL MODEL      
          WATER VAPOR =    1     TROPICAL MODEL      
          OZONE       =    1     TROPICAL MODEL      
                      M4 =     1 M5 =     1 M6 =     1 MDEF =     1
0 AEROSOL MODEL
          REGIME                  AEROSOL TYPE             PROFILE                  SEASON

          BOUNDARY LAYER (0-2 KM) RURAL                      5.0 KM VIS AT SEA LEVEL
          TROPOSPHERE  (2-10KM)   TROPOSPHERIC             TROPOSPHERIC             SPRING-SUMMER       
          STRATOSPHERE (10-30KM)  BACKGROUND STRATO        BACKGROUND STRATO        SPRING-SUMMER       
          UPPER ATMOS (30-100KM)  METEORIC DUST            NORMAL              
0 SLANT PATH TO SPACE
          H1    =      0.001 KM
          HMIN  =      0.000 KM
          ANGLE =    180.000 DEG
0 FREQUENCY RANGE
             IV1 =       100 CM-1  (    100.00 MICROMETERS)
             IV2 =      1500 CM-1  (      6.67 MICROMETERS)
             IDV =         2 CM-1
           IFWHM =         2 CM-1
1
  ATMOSPHERIC PROFILES

   I     Z       P       T        N2       CNTMSLF MOL SCAT     N-1     O3 (UV)  O2 (UV)
        (KM)    (MB)    (K)            (MOL/CM2 KM)   (-)       (-)  (ATM CM/KM) (ATM CM/KM)

   1     0.00 1013.000  299.7  7.622E-01 1.623E+21 9.112E-01 2.609E-04 2.612E-03 3.342E+04
   2     1.00  904.000  293.7  6.321E-01 7.602E+20 8.298E-01 2.379E-04 2.612E-03 2.927E+04
   3     2.00  805.000  287.7  5.223E-01 3.892E+20 7.543E-01 2.164E-04 2.519E-03 2.562E+04
   4     3.00  715.000  283.7  4.238E-01 9.924E+19 6.794E-01 1.951E-04 2.379E-03 2.219E+04
   5     4.00  633.000  277.0  3.484E-01 2.176E+19 6.160E-01 1.770E-04 2.192E-03 1.945E+04
   6     5.00  559.000  270.3  2.853E-01 1.012E+19 5.575E-01 1.603E-04 2.099E-03 1.703E+04
   7     6.00  492.000  263.6  2.324E-01 3.249E+18 5.032E-01 1.447E-04 2.006E-03 1.490E+04
   8     7.00  432.000  257.0  1.885E-01 9.917E+17 4.531E-01 1.303E-04 1.912E-03 1.302E+04
   9     8.00  378.000  250.3  1.522E-01 2.810E+17 4.071E-01 1.171E-04 1.819E-03 1.138E+04
  10     9.00  329.000  243.6  1.217E-01 6.471E+16 3.641E-01 1.047E-04 1.819E-03 9.902E+03
  11    10.00  286.000  237.0  9.716E-02 1.125E+16 3.253E-01 9.355E-05 1.819E-03 8.629E+03
  12    11.00  247.000  230.1  7.688E-02 1.299E+15 2.894E-01 8.322E-05 1.912E-03 7.496E+03
  13    12.00  213.000  223.6  6.054E-02 1.618E+14 2.568E-01 7.385E-05 2.006E-03 6.507E+03
  14    13.00  182.000  217.0  4.693E-02 1.456E+13 2.261E-01 6.502E-05 2.099E-03 5.608E+03
  15    14.00  156.000  210.3  3.671E-02 4.497E+12 2.000E-01 5.751E-05 2.098E-03 4.870E+03
  16    15.00  132.000  203.7  2.802E-02 1.419E+12 1.747E-01 5.024E-05 2.193E-03 4.178E+03
  17    16.00  111.000  197.0  2.118E-02 6.036E+11 1.519E-01 4.368E-05 2.192E-03 3.572E+03
  18    17.00   93.700  194.8  1.544E-02 4.110E+11 1.297E-01 3.729E-05 3.240E-03 3.000E+03
  19    18.00   78.900  198.8  1.051E-02 2.516E+11 1.070E-01 3.077E-05 5.346E-03 2.433E+03
  20    19.00   66.600  202.7  7.202E-03 1.542E+11 8.857E-02 2.547E-05 8.409E-03 1.986E+03
  21    20.00   56.500  206.7  4.985E-03 1.067E+11 7.369E-02 2.119E-05 1.031E-02 1.633E+03
  22    21.00   48.000  210.7  3.463E-03 7.699E+10 6.141E-02 1.766E-05 1.105E-02 1.348E+03
  23    22.00   40.900  214.6  2.423E-03 6.016E+10 5.138E-02 1.478E-05 1.232E-02 1.119E+03
  24    23.00   35.000  217.0  1.736E-03 4.622E+10 4.348E-02 1.250E-05 1.477E-02 9.409E+02
  25    24.00   30.000  219.2  1.250E-03 4.052E+10 3.689E-02 1.061E-05 1.585E-02 7.942E+02
  26    25.00   25.700  221.4  8.990E-04 3.007E+10 3.129E-02 8.999E-06 1.689E-02 6.705E+02
  27    30.00   12.200  232.3  1.840E-04 9.323E+09 1.416E-02 4.072E-06 1.316E-02 2.992E+02
  28    35.00    6.000  243.1  4.064E-05 2.723E+09 6.654E-03 1.913E-06 6.450E-03 1.397E+02
  29    40.00    3.050  254.0  9.620E-06 8.236E+08 3.237E-03 9.309E-07 2.426E-03 6.779E+01
  30    45.00    1.590  264.8  2.405E-06 2.475E+08 1.619E-03 4.655E-07 7.279E-04 3.385E+01
  31    50.00    0.854  270.2  6.665E-07 7.597E+07 8.520E-04 2.450E-07 2.384E-04 1.781E+01
  32    70.00    0.058  218.9  4.684E-09 3.003E+05 7.143E-05 2.054E-08 2.141E-06 1.492E+00
  33   100.00    0.000  190.7  1.532E-13 7.763E-02 4.085E-07 1.175E-10 1.633E-08 6.532E-03
1
  ATMOSPHERIC PROFILES

   I     Z       P       T      CNTMFRN     HNO3    AEROSOL 1 AEROSOL 2 AEROSOL 3 AEROSOL 4 AER1*RH   CIRRUS         RH
        (KM)    (MB)    (K)   MOL/CM2 KM ATM CM/KM   (-)       (-)       (-)       (-)       (-)       (-)      (PERCNT)

   1     0.00 1013.000  299.7  6.101E+22 4.556E-06 7.700E-01 0.000E+00 0.000E+00 0.000E+00 2.462E+00 0.000E+00 7.553E+01
   2     1.00  904.000  293.7  3.828E+22 4.945E-06 7.700E-01 0.000E+00 0.000E+00 0.000E+00 2.544E+00 0.000E+00 7.277E+01
   3     2.00  805.000  287.7  2.500E+22 5.227E-06 6.210E-02 0.000E+00 0.000E+00 0.000E+00 2.011E-01 0.000E+00 7.451E+01
   4     3.00  715.000  283.7  1.145E+22 5.374E-06 0.000E+00 3.460E-02 0.000E+00 0.000E+00 0.000E+00 0.000E+00 4.825E+01
   5     4.00  633.000  277.0  4.881E+21 5.464E-06 0.000E+00 1.850E-02 0.000E+00 0.000E+00 0.000E+00 0.000E+00 3.491E+01
   6     5.00  559.000  270.3  3.015E+21 5.436E-06 0.000E+00 9.310E-03 0.000E+00 0.000E+00 0.000E+00 0.000E+00 3.771E+01
   7     6.00  492.000  263.6  1.544E+21 5.585E-06 0.000E+00 7.710E-03 0.000E+00 0.000E+00 0.000E+00 0.000E+00 3.479E+01
   8     7.00  432.000  257.0  7.690E+20 5.710E-06 0.000E+00 6.230E-03 0.000E+00 0.000E+00 0.000E+00 0.000E+00 3.198E+01
   9     8.00  378.000  250.3  3.680E+20 5.659E-06 0.000E+00 3.370E-03 0.000E+00 0.000E+00 0.000E+00 0.000E+00 2.947E+01
  10     9.00  329.000  243.6  1.580E+20 5.571E-06 0.000E+00 1.820E-03 0.000E+00 0.000E+00 0.000E+00 0.000E+00 2.535E+01
  11    10.00  286.000  237.0  5.886E+19 5.660E-06 0.000E+00 1.140E-03 0.000E+00 0.000E+00 0.000E+00 0.000E+00 1.951E+01
  12    11.00  247.000  230.1  1.780E+19 5.845E-06 0.000E+00 0.000E+00 7.990E-04 0.000E+00 0.000E+00 0.000E+00 1.315E+01
  13    12.00  213.000  223.6  5.573E+18 6.189E-06 0.000E+00 0.000E+00 6.410E-04 0.000E+00 0.000E+00 0.000E+00 9.253E+00
  14    13.00  182.000  217.0  1.472E+18 6.240E-06 0.000E+00 0.000E+00 5.170E-04 0.000E+00 0.000E+00 0.000E+00 5.881E+00
  15    14.00  156.000  210.3  7.236E+17 6.659E-06 0.000E+00 0.000E+00 4.420E-04 0.000E+00 0.000E+00 0.000E+00 7.410E+00
  16    15.00  132.000  203.7  3.551E+17 7.896E-06 0.000E+00 0.000E+00 3.950E-04 0.000E+00 0.000E+00 0.000E+00 9.923E+00
  17    16.00  111.000  197.0  2.014E+17 1.119E-05 0.000E+00 0.000E+00 3.820E-04 0.000E+00 0.000E+00 0.000E+00 1.677E+01
  18    17.00   93.700  194.8  1.419E+17 1.699E-05 0.000E+00 0.000E+00 4.250E-04 0.000E+00 0.000E+00 0.000E+00 1.924E+01
  19    18.00   78.900  198.8  9.158E+16 2.257E-05 0.000E+00 0.000E+00 5.200E-04 0.000E+00 0.000E+00 0.000E+00 8.321E+00
  20    19.00   66.600  202.7  5.934E+16 2.808E-05 0.000E+00 0.000E+00 5.810E-04 0.000E+00 0.000E+00 0.000E+00 3.752E+00
  21    20.00   56.500  206.7  4.107E+16 3.095E-05 0.000E+00 0.000E+00 5.890E-04 0.000E+00 0.000E+00 0.000E+00 1.818E+00
  22    21.00   48.000  210.7  2.908E+16 3.034E-05 0.000E+00 0.000E+00 5.020E-04 0.000E+00 0.000E+00 0.000E+00 9.217E-01
  23    22.00   40.900  214.6  2.150E+16 2.805E-05 0.000E+00 0.000E+00 4.200E-04 0.000E+00 0.000E+00 0.000E+00 5.033E-01
  24    23.00   35.000  217.0  1.595E+16 2.496E-05 0.000E+00 0.000E+00 3.000E-04 0.000E+00 0.000E+00 0.000E+00 3.313E-01
  25    24.00   30.000  219.2  1.267E+16 2.155E-05 0.000E+00 0.000E+00 1.980E-04 0.000E+00 0.000E+00 0.000E+00 2.401E-01
  26    25.00   25.700  221.4  9.258E+15 1.756E-05 0.000E+00 0.000E+00 1.310E-04 0.000E+00 0.000E+00 0.000E+00 1.611E-01
  27    30.00   12.200  232.3  2.333E+15 5.295E-06 0.000E+00 0.000E+00 3.320E-05 0.000E+00 0.000E+00 0.000E+00 2.817E-02
  28    35.00    6.000  243.1  5.924E+14 1.091E-06 0.000E+00 0.000E+00 0.000E+00 1.640E-05 0.000E+00 0.000E+00 5.440E-03
  29    40.00    3.050  254.0  1.585E+14 1.725E-07 0.000E+00 0.000E+00 0.000E+00 7.990E-06 0.000E+00 0.000E+00 1.173E-03
  30    45.00    1.590  264.8  4.345E+13 1.959E-08 0.000E+00 0.000E+00 0.000E+00 4.010E-06 0.000E+00 0.000E+00 2.777E-04
  31    50.00    0.854  270.2  1.267E+13 4.729E-09 0.000E+00 0.000E+00 0.000E+00 2.100E-06 0.000E+00 0.000E+00 1.041E-04
  32    70.00    0.058  218.9  6.679E+10 2.336E-10 0.000E+00 0.000E+00 0.000E+00 1.600E-07 0.000E+00 0.000E+00 6.767E-04
  33   100.00    0.000  190.7  1.942E+05 1.115E-12 0.000E+00 0.000E+00 0.000E+00 9.310E-10 0.000E+00 0.000E+00 1.583E-05
1
  ATMOSPHERIC PROFILES

   I      Z       P       T      H2O      O3       CO2      CO       CH4      N2O      O2       NH3      NO       NO2      SO2
         (KM)    (MB)    (K)  (                                 ATM CM/KM                                                     )
   1     0.00 1013.000  299.7  2.36E+03 2.61E-03 3.41E+01 1.37E-02 1.55E-01 2.91E-02 1.90E+04 4.55E-05 2.73E-05 2.09E-06 2.73E-05
   2     1.00  904.000  293.7  1.62E+03 2.61E-03 3.11E+01 1.20E-02 1.41E-01 2.65E-02 1.73E+04 4.15E-05 2.49E-05 1.91E-06 2.27E-05
   3     2.00  805.000  287.7  1.16E+03 2.52E-03 2.83E+01 1.05E-02 1.28E-01 2.41E-02 1.58E+04 3.49E-05 2.26E-05 1.73E-06 1.78E-05
   4     3.00  715.000  283.7  5.84E+02 2.38E-03 2.55E+01 9.16E-03 1.15E-01 2.17E-02 1.42E+04 2.58E-05 2.04E-05 1.56E-06 1.29E-05
   5     4.00  633.000  277.0  2.73E+02 2.19E-03 2.31E+01 8.08E-03 1.05E-01 1.97E-02 1.29E+04 1.77E-05 1.85E-05 1.42E-06 8.99E-06
   6     5.00  559.000  270.3  1.86E+02 2.10E-03 2.09E+01 7.26E-03 9.47E-02 1.78E-02 1.16E+04 1.14E-05 1.67E-05 1.28E-06 6.57E-06
   7     6.00  492.000  263.6  1.06E+02 2.01E-03 1.89E+01 6.48E-03 8.55E-02 1.61E-02 1.05E+04 7.34E-06 1.51E-05 1.16E-06 4.88E-06
   8     7.00  432.000  257.0  5.84E+01 1.91E-03 1.70E+01 5.65E-03 7.69E-02 1.45E-02 9.46E+03 4.47E-06 1.36E-05 1.04E-06 3.76E-06
   9     8.00  378.000  250.3  3.11E+01 1.82E-03 1.53E+01 4.82E-03 6.90E-02 1.30E-02 8.50E+03 2.64E-06 1.22E-05 9.36E-07 2.93E-06
  10     9.00  329.000  243.6  1.49E+01 1.82E-03 1.36E+01 3.98E-03 6.16E-02 1.16E-02 7.60E+03 1.37E-06 1.09E-05 8.44E-07 2.39E-06
  11    10.00  286.000  237.0  6.22E+00 1.82E-03 1.22E+01 3.24E-03 5.48E-02 1.03E-02 6.79E+03 6.60E-07 9.75E-06 7.74E-07 1.98E-06
  12    11.00  247.000  230.1  2.11E+00 1.91E-03 1.08E+01 2.59E-03 4.84E-02 9.08E-03 6.04E+03 3.15E-07 8.68E-06 7.58E-07 1.67E-06
  13    12.00  213.000  223.6  7.45E-01 2.01E-03 9.62E+00 2.01E-03 4.27E-02 7.94E-03 5.36E+03 1.62E-07 7.70E-06 8.08E-07 1.44E-06
  14    13.00  182.000  217.0  2.24E-01 2.10E-03 8.47E+00 1.44E-03 3.72E-02 6.89E-03 4.72E+03 7.05E-08 6.76E-06 1.01E-06 1.26E-06
  15    14.00  156.000  210.3  1.24E-01 2.10E-03 7.49E+00 1.00E-03 3.25E-02 5.99E-03 4.18E+03 2.22E-08 5.90E-06 1.49E-06 1.13E-06
  16    15.00  132.000  203.7  6.98E-02 2.19E-03 6.55E+00 6.88E-04 2.80E-02 5.14E-03 3.65E+03 7.80E-09 4.94E-06 2.99E-06 1.00E-06
  17    16.00  111.000  197.0  4.55E-02 2.19E-03 5.69E+00 4.66E-04 2.40E-02 4.37E-03 3.17E+03 3.20E-09 4.07E-06 4.84E-06 8.73E-07
  18    17.00   93.700  194.8  3.76E-02 3.24E-03 4.86E+00 3.23E-04 2.01E-02 3.61E-03 2.71E+03 1.43E-09 3.27E-06 6.73E-06 6.96E-07
  19    18.00   78.900  198.8  2.94E-02 5.35E-03 4.01E+00 2.10E-04 1.63E-02 2.86E-03 2.23E+03 7.16E-10 2.57E-06 8.24E-06 5.11E-07
  20    19.00   66.600  202.7  2.30E-02 8.41E-03 3.32E+00 1.37E-04 1.31E-02 2.24E-03 1.85E+03 3.51E-10 2.16E-06 9.38E-06 3.51E-07
  21    20.00   56.500  206.7  1.91E-02 1.03E-02 2.76E+00 9.80E-05 1.05E-02 1.74E-03 1.54E+03 1.77E-10 1.88E-06 1.02E-05 2.35E-07
  22    21.00   48.000  210.7  1.63E-02 1.10E-02 2.30E+00 7.56E-05 8.32E-03 1.35E-03 1.28E+03 1.18E-10 1.70E-06 1.08E-05 1.64E-07
  23    22.00   40.900  214.6  1.44E-02 1.23E-02 1.93E+00 6.33E-05 6.53E-03 1.05E-03 1.07E+03 8.83E-11 1.58E-06 1.11E-05 1.17E-07
  24    23.00   35.000  217.0  1.26E-02 1.48E-02 1.63E+00 5.68E-05 5.18E-03 8.55E-04 9.08E+02 6.91E-11 1.56E-06 1.12E-05 8.99E-08
  25    24.00   30.000  219.2  1.18E-02 1.59E-02 1.38E+00 5.16E-05 4.12E-03 6.91E-04 7.71E+02 5.31E-11 1.66E-06 1.13E-05 7.01E-08
  26    25.00   25.700  221.4  1.02E-02 1.69E-02 1.17E+00 4.76E-05 3.30E-03 5.49E-04 6.54E+02 3.85E-11 2.14E-06 1.17E-05 5.47E-08
  27    30.00   12.200  232.3  5.66E-03 1.32E-02 5.31E-01 2.82E-05 1.29E-03 2.00E-04 2.96E+02 8.98E-12 3.47E-06 8.72E-06 1.90E-08
  28    35.00    6.000  243.1  3.06E-03 6.45E-03 2.49E-01 1.65E-05 4.96E-04 6.17E-05 1.39E+02 1.21E-12 4.75E-06 4.84E-06 7.71E-09
  29    40.00    3.050  254.0  1.68E-03 2.43E-03 1.21E-01 1.00E-05 1.82E-04 1.46E-05 6.76E+01 9.51E-14 3.62E-06 1.30E-06 4.40E-09
  30    45.00    1.590  264.8  9.22E-04 7.28E-04 6.07E-02 6.45E-06 5.87E-05 2.57E-06 3.38E+01 4.82E-15 1.89E-06 1.86E-07 3.40E-09
  31    50.00    0.854  270.2  5.11E-04 2.38E-04 3.19E-02 4.34E-06 1.79E-05 4.05E-07 1.78E+01 6.07E-16 8.77E-07 3.77E-08 3.03E-09
  32    70.00    0.058  218.9  3.21E-05 2.14E-06 2.68E-03 1.38E-06 1.07E-06 8.20E-09 1.49E+00 1.83E-17 8.21E-08 1.65E-09 3.08E-10
  33   100.00    0.000  190.7  1.63E-08 1.63E-08 9.05E-06 6.96E-07 4.90E-09 1.36E-11 6.53E-03 6.04E-20 8.49E-08 6.94E-12 1.46E-14
1
  ATMOSPHERIC PROFILES

   I      Z       P       T     CFC-11   CFC-12   CFC-13   CFC-14   CFC-22   CFC-113  CFC-114  CFC-115  CLONO2    HNO4    CHCL2F 
                                 CCL4     N2O5  
         (KM)    (MB)    (K)  (                                 ATM CM/KM                                                     )
   1     0.00 1013.000  299.7  1.27E-05 2.19E-05 9.11E-14 9.11E-14 5.46E-06 1.73E-06 1.09E-06 9.11E-14 5.24E-07 3.95E-08 9.11E-14
                               1.18E-05 2.20E-11
   2     1.00  904.000  293.7  1.16E-05 1.99E-05 8.29E-14 8.29E-14 4.97E-06 1.58E-06 9.95E-07 8.29E-14 4.25E-07 1.77E-07 8.29E-14
                               1.08E-05 7.91E-11
   3     2.00  805.000  287.7  1.06E-05 1.81E-05 7.54E-14 7.54E-14 4.52E-06 1.43E-06 9.05E-07 7.54E-14 3.40E-07 2.89E-07 7.54E-14
                               9.80E-06 1.26E-10
   4     3.00  715.000  283.7  9.51E-06 1.63E-05 6.79E-14 6.79E-14 4.06E-06 1.29E-06 8.15E-07 6.79E-14 2.64E-07 3.76E-07 6.79E-14
                               8.83E-06 1.61E-10
   5     4.00  633.000  277.0  8.62E-06 1.48E-05 6.16E-14 6.16E-14 3.68E-06 1.17E-06 7.39E-07 6.16E-14 2.01E-07 4.46E-07 6.16E-14
                               8.00E-06 1.90E-10
   6     5.00  559.000  270.3  7.80E-06 1.34E-05 5.57E-14 5.57E-14 3.33E-06 1.06E-06 6.69E-07 5.57E-14 1.53E-07 1.01E-06 5.57E-14
                               7.23E-06 2.01E-10
   7     6.00  492.000  263.6  7.04E-06 1.21E-05 5.03E-14 5.03E-14 3.00E-06 9.55E-07 6.03E-07 5.03E-14 1.13E-07 1.46E-06 5.03E-14
                               6.51E-06 2.07E-10
   8     7.00  432.000  257.0  6.34E-06 1.09E-05 4.53E-14 4.53E-14 2.70E-06 8.60E-07 5.43E-07 4.53E-14 7.90E-08 1.81E-06 4.53E-14
                               5.86E-06 2.10E-10
   9     8.00  378.000  250.3  5.70E-06 9.76E-06 4.07E-14 4.07E-14 2.43E-06 7.73E-07 4.88E-07 4.07E-14 5.04E-08 2.07E-06 4.07E-14
                               5.25E-06 2.10E-10
  10     9.00  329.000  243.6  5.09E-06 8.72E-06 3.64E-14 3.64E-14 2.17E-06 6.91E-07 4.37E-07 3.64E-14 4.40E-08 1.79E-06 3.64E-14
                               4.69E-06 2.10E-10
  11    10.00  286.000  237.0  4.54E-06 7.79E-06 3.25E-14 3.25E-14 1.94E-06 6.16E-07 3.90E-07 3.25E-14 3.82E-08 1.54E-06 3.25E-14
                               4.19E-06 2.07E-10
  12    11.00  247.000  230.1  4.03E-06 6.92E-06 2.89E-14 2.89E-14 1.72E-06 5.47E-07 3.47E-07 2.89E-14 3.31E-08 1.32E-06 2.89E-14
                               3.73E-06 2.02E-10
  13    12.00  213.000  223.6  3.57E-06 6.13E-06 2.57E-14 2.57E-14 1.53E-06 4.85E-07 3.08E-07 2.57E-14 2.85E-08 1.12E-06 2.57E-14
                               3.31E-06 1.94E-10
  14    13.00  182.000  217.0  3.05E-06 5.32E-06 2.26E-14 2.26E-14 1.33E-06 4.19E-07 2.68E-07 2.26E-14 1.81E-07 1.28E-06 2.26E-14
                               2.82E-06 9.96E-09
  15    14.00  156.000  210.3  2.62E-06 4.64E-06 2.00E-14 2.00E-14 1.17E-06 3.64E-07 2.35E-07 2.00E-14 2.98E-07 1.39E-06 2.00E-14
                               2.42E-06 1.75E-08
  16    15.00  132.000  203.7  2.22E-06 3.99E-06 1.75E-14 1.75E-14 1.01E-06 3.12E-07 2.03E-07 1.75E-14 3.81E-07 1.44E-06 1.75E-14
                               2.04E-06 2.28E-08
  17    16.00  111.000  197.0  1.87E-06 3.42E-06 1.52E-14 1.52E-14 8.68E-07 2.66E-07 1.75E-07 1.52E-14 4.36E-07 1.44E-06 1.52E-14
                               1.72E-06 2.64E-08
  18    17.00   93.700  194.8  1.46E-06 2.78E-06 1.30E-14 1.30E-14 7.21E-07 2.14E-07 1.45E-07 1.30E-14 1.32E-06 1.85E-06 1.30E-14
                               1.32E-06 1.14E-07
  19    18.00   78.900  198.8  1.09E-06 2.19E-06 1.07E-14 1.07E-14 5.78E-07 1.66E-07 1.16E-07 1.07E-14 1.86E-06 2.03E-06 1.07E-14
                               9.69E-07 1.69E-07
  20    19.00   66.600  202.7  8.05E-07 1.72E-06 8.85E-15 8.85E-15 4.65E-07 1.29E-07 9.32E-08 8.85E-15 2.19E-06 2.10E-06 8.85E-15
                               7.03E-07 2.02E-07
  21    20.00   56.500  206.7  5.91E-07 1.35E-06 7.36E-15 7.36E-15 3.75E-07 1.00E-07 7.51E-08 7.36E-15 2.36E-06 2.10E-06 7.36E-15
                               5.02E-07 2.20E-07
  22    21.00   48.000  210.7  4.21E-07 1.05E-06 6.14E-15 6.14E-15 3.00E-07 7.60E-08 5.99E-08 6.14E-15 2.82E-06 2.16E-06 6.14E-15
                               3.51E-07 2.54E-07
  23    22.00   40.900  214.6  2.93E-07 8.11E-07 5.13E-15 5.13E-15 2.41E-07 5.73E-08 4.78E-08 5.13E-15 3.08E-06 2.15E-06 5.13E-15
                               2.37E-07 2.72E-07
  24    23.00   35.000  217.0  1.98E-07 6.30E-07 4.35E-15 4.35E-15 1.95E-07 4.32E-08 3.85E-08 4.35E-15 3.22E-06 2.11E-06 4.35E-15
                               1.52E-07 2.80E-07
  25    24.00   30.000  219.2  1.25E-07 4.87E-07 3.69E-15 3.69E-15 1.59E-07 3.21E-08 3.10E-08 3.69E-15 3.24E-06 2.04E-06 3.69E-15
                               8.85E-08 2.81E-07
  26    25.00   25.700  221.4  8.53E-08 3.72E-07 3.13E-15 3.13E-15 1.28E-07 2.38E-08 2.49E-08 3.13E-15 3.04E-06 1.82E-06 3.13E-15
                               5.89E-08 2.41E-07
  27    30.00   12.200  232.3  5.52E-09 8.33E-08 1.41E-15 1.41E-15 4.28E-08 4.12E-09 7.97E-09 1.41E-15 1.61E-06 7.22E-07 1.41E-15
                               2.48E-09 7.81E-08
  28    35.00    6.000  243.1  1.32E-10 1.42E-08 6.65E-16 6.65E-16 1.38E-08 4.77E-10 2.43E-09 6.65E-16 3.48E-07 9.77E-08 6.65E-16
                               2.63E-11 7.19E-09
  29    40.00    3.050  254.0  5.98E-13 1.97E-09 3.23E-16 3.23E-16 4.50E-09 3.98E-11 7.50E-10 3.23E-16 1.38E-08 3.22E-09 3.23E-16
                               1.28E-14 6.89E-11
  30    45.00    1.590  264.8  1.49E-14 3.45E-10 1.62E-16 1.62E-16 1.68E-09 5.20E-12 2.62E-10 1.62E-16 2.72E-10 1.41E-10 1.62E-16
                               9.01E-17 6.37E-13
  31    50.00    0.854  270.2  5.08E-16 7.25E-11 8.51E-17 8.51E-17 7.48E-10 8.43E-13 1.06E-10 8.51E-17 3.97E-12 6.50E-12 8.51E-17
                               9.31E-19 5.35E-15
  32    70.00    0.058  218.9  3.63E-21 2.79E-13 7.14E-18 7.14E-18 5.13E-11 1.25E-15 4.18E-12 7.14E-18 5.16E-19 2.29E-16 7.14E-18
                               7.05E-26 5.85E-23
  33   100.00    0.000  190.7  1.27E-30 1.01E-18 4.08E-20 4.08E-20 7.31E-14 5.35E-22 8.70E-16 4.08E-20 3.30E-35 1.36E-31 4.08E-20
                               2.08E-38 0.00E+00


 CASE 3A: GIVEN H1,H2=SPACE,ANGLE



 TANGENT PATH WITH H1 =      0.001 AND ANGLE =    180.000 INTERSECTS THE EARTH

          H2 HAS BEEN RESET TO 0.0 AND LEN TO 0



 SLANT PATH PARAMETERS IN STANDARD FORM

          H1      =      0.001 KM
          H2      =      0.000 KM
          ANGLE   =    180.000 DEG
          PHI     =      0.000 DEG
          HMIN    =      0.000 KM
          LEN     =          0
1CALCULATION OF THE REFRACTED PATH THROUGH THE ATMOSPHERE


  I       ALTITUDE        THETA  DRANGE    RANGE    DBETA     BETA     PHI     DBEND  BENDING    PBAR    TBAR   RHOBAR
      FROM       TO
      (KM)      (KM)      (DEG)    (KM)     (KM)    (DEG)    (DEG)    (DEG)    (DEG)    (DEG)    (MB)    (K)  (GM CM-3)

          H2 TO H1

  1    0.000    0.001    0.000    0.001    0.001    0.000    0.000  180.000    0.000    0.000 1012.942  299.70 1.18E-03




1CUMULATIVE ABSORBER AMOUNTS FOR THE PATH FROM H1 TO Z

  J     Z        TBAR     HNO3        O3 UV      CNTMSLF1   CNTMSLF2    CNTMFRN      O2
       (KM)       (K)   (ATM CM)    (ATM CM)    (MOL CM-2)  (MOL CM-2)  (MOL CM-2)(MOL CM-2)

  1    0.000   299.70   4.556E-09   2.612E-06   1.622E+18  -1.666E+17   6.099E+19   3.342E+01



1 J     Z       N2 CONT    MOL SCAT       AER 1       AER 2       AER 3       AER 4       CIRRUS
       (KM)

  1    0.000   7.622E-04   9.111E-04   7.700E-04   0.000E+00   0.000E+00   0.000E+00   0.000E+00



1  J    Z       H2O       O3        CO2       CO        CH4       N2O       O2        NH3       NO        NO2       SO2
      (KM)    (                                                      ATM CM                                             )

   1    0.00  2.36E+00  2.61E-06  3.41E-02  1.37E-05  1.55E-04  2.91E-05  1.90E+01  4.55E-08  2.73E-08  2.09E-09  2.73E-08



1  J    Z      CFC-11    CFC-12    CFC-13    CFC-14    CFC-22    CFC-113   CFC-114   CFC-115   CLONO2     HNO4     CHCL2F 
                CCL4      N2O5  
      (KM)    (                                                   ATM CM                                                )

   1    0.00  1.28E-08  2.19E-08  9.10E-17  9.10E-17  5.46E-09  1.73E-09  1.09E-09  9.10E-17  5.23E-10  3.95E-11  9.10E-17
              1.18E-08  2.21E-14


0SUMMARY OF THE GEOMETRY CALCULATION

          H1      =      0.001 KM
          H2      =      0.000 KM
          ANGLE   =    180.000 DEG
          RANGE   =      0.001 KM
          BETA    =      0.000 DEG
          PHI     =      0.000 DEG
          HMIN    =      0.000 KM
          BENDING =      0.000 DEG
          LEN     =          0




1EQUIVALENT SEA LEVEL TOTAL ABSORBER AMOUNTS

                 HNO3      O3 UV       CNTMSLF1    CNTMSLF2   CNTMFRN
               (ATM CM)   (ATM CM)     (MOL CM-2)  (MOL CM-2)  (MOL CM-2)  (MOL CM-2)

             4.556E-09   2.612E-06   1.622E+18  -1.666E+17   6.099E+19


              N2 CONT    MOL SCAT       AER 1       AER 2       AER 3       AER 4     CIRRUS      MEAN RH
                                                                                                  (PRCNT)

             7.622E-04   9.111E-04   7.700E-04   0.000E+00   0.000E+00   0.000E+00   0.000E+00       75.53


                 H2O        O3          CO2         CO          CH4         N2O          O2
               (                                        ATM CM                            )

             2.360E+00   2.612E-06   3.414E-02   1.366E-05   1.548E-04   2.914E-05   1.903E+01

                 NH3        NO          NO2         SO2
                 (               ATM CM               )

             4.553E-08   2.732E-08   2.094E-09   2.731E-08

             CFC-11      CFC-12      CFC-13      CFC-14      CFC-22      CFC-113     CFC-114
                 (                                      ATM CM                            )

             1.275E-08   2.185E-08   9.103E-17   9.103E-17   5.463E-09   1.730E-09   1.093E-09

             CFC-115     CLONO2       HNO4       CHCL2F       CCL4        N2O5  
                 (                                      ATM CM                            )

             9.103E-17   5.235E-10   3.955E-11   9.103E-17   1.184E-08   2.205E-14
1                                             RADIANCE(WATTS/CM2-STER-XXX)
0  FREQ   WAVLEN    PATH THERMAL      SURFACE EMISSION    SURFACE REFLECTED     TOTAL RADIANCE   INTEGRAL    TOTAL
  (CM-1) (MICRN)    (CM-1)   (MICRN)    (CM-1)   (MICRN)    (CM-1)   (MICRN)    (CM-1)   (MICRN)    (CM-1)   TRANS

    100. 100.000  1.93E-06  1.93E-06  1.15E-09  1.15E-09  0.00E+00  0.00E+00  1.93E-06  1.93E-06  1.93E-06  0.00060
    102.  98.039  1.87E-06  1.95E-06  1.24E-07  1.29E-07  0.00E+00  0.00E+00  2.00E-06  2.08E-06  5.93E-06  0.06217
    104.  96.154  1.95E-06  2.11E-06  1.18E-07  1.27E-07  0.00E+00  0.00E+00  2.07E-06  2.24E-06  1.01E-05  0.05894
    106.  94.340  2.09E-06  2.35E-06  4.27E-08  4.80E-08  0.00E+00  0.00E+00  2.14E-06  2.40E-06  1.43E-05  0.02010
    108.  92.593  1.83E-06  2.13E-06  3.74E-07  4.36E-07  0.00E+00  0.00E+00  2.20E-06  2.57E-06  1.87E-05  0.17135
    110.  90.909  1.67E-06  2.02E-06  6.00E-07  7.26E-07  0.00E+00  0.00E+00  2.27E-06  2.74E-06  2.33E-05  0.27038
    112.  89.286  1.99E-06  2.49E-06  3.55E-07  4.45E-07  0.00E+00  0.00E+00  2.34E-06  2.94E-06  2.80E-05  0.15234
    114.  87.719  1.09E-06  1.42E-06  1.31E-06  1.70E-06  0.00E+00  0.00E+00  2.40E-06  3.11E-06  3.27E-05  0.54974
    116.  86.207  1.48E-06  1.99E-06  9.92E-07  1.34E-06  0.00E+00  0.00E+00  2.47E-06  3.33E-06  3.77E-05  0.40761
    118.  84.746  2.20E-06  3.06E-06  3.64E-07  5.06E-07  0.00E+00  0.00E+00  2.56E-06  3.56E-06  4.28E-05  0.14394
    120.  83.333  2.46E-06  3.54E-06  1.80E-07  2.59E-07  0.00E+00  0.00E+00  2.64E-06  3.80E-06  4.81E-05  0.07044
    122.  81.967  2.70E-06  4.02E-06  1.77E-08  2.64E-08  0.00E+00  0.00E+00  2.72E-06  4.04E-06  5.35E-05  0.00659
    124.  80.645  2.42E-06  3.73E-06  3.60E-07  5.53E-07  0.00E+00  0.00E+00  2.78E-06  4.28E-06  5.91E-05  0.13099
    126.  79.365  2.76E-06  4.38E-06  1.08E-07  1.71E-07  0.00E+00  0.00E+00  2.86E-06  4.55E-06  6.48E-05  0.03890
    128.  78.125  2.76E-06  4.52E-06  1.78E-07  2.92E-07  0.00E+00  0.00E+00  2.94E-06  4.82E-06  7.07E-05  0.06138
    130.  76.923  2.43E-06  4.11E-06  5.76E-07  9.74E-07  0.00E+00  0.00E+00  3.01E-06  5.08E-06  7.67E-05  0.19485
    132.  75.758  3.05E-06  5.31E-06  5.05E-08  8.80E-08  0.00E+00  0.00E+00  3.10E-06  5.39E-06  8.29E-05  0.01684
    134.  74.627  2.87E-06  5.14E-06  3.03E-07  5.44E-07  0.00E+00  0.00E+00  3.17E-06  5.69E-06  8.92E-05  0.09663
    136.  73.529  2.37E-06  4.38E-06  8.65E-07  1.60E-06  0.00E+00  0.00E+00  3.23E-06  5.98E-06  9.57E-05  0.27140
    138.  72.464  3.10E-06  5.90E-06  2.28E-07  4.35E-07  0.00E+00  0.00E+00  3.33E-06  6.33E-06  1.02E-04  0.07075
    140.  71.429  3.40E-06  6.66E-06  1.08E-08  2.11E-08  0.00E+00  0.00E+00  3.41E-06  6.68E-06  1.09E-04  0.00321
    142.  70.423  2.69E-06  5.43E-06  7.81E-07  1.58E-06  0.00E+00  0.00E+00  3.47E-06  7.00E-06  1.16E-04  0.22723
    144.  69.444  1.92E-06  3.99E-06  1.61E-06  3.34E-06  0.00E+00  0.00E+00  3.54E-06  7.33E-06  1.23E-04  0.46086
    146.  68.493  2.18E-06  4.65E-06  1.44E-06  3.06E-06  0.00E+00  0.00E+00  3.62E-06  7.72E-06  1.30E-04  0.40209
    148.  67.568  3.24E-06  7.09E-06  4.84E-07  1.06E-06  0.00E+00  0.00E+00  3.72E-06  8.15E-06  1.38E-04  0.13338
    150.  66.667  3.81E-06  8.57E-06  1.22E-09  2.75E-09  0.00E+00  0.00E+00  3.81E-06  8.57E-06  1.46E-04  0.00033
    152.  65.789  3.89E-06  8.98E-06  3.82E-09  8.82E-09  0.00E+00  0.00E+00  3.89E-06  8.99E-06  1.53E-04  0.00099
    154.  64.935  3.74E-06  8.86E-06  2.32E-07  5.50E-07  0.00E+00  0.00E+00  3.97E-06  9.41E-06  1.61E-04  0.05892
    156.  64.103  3.75E-06  9.13E-06  2.97E-07  7.23E-07  0.00E+00  0.00E+00  4.05E-06  9.86E-06  1.69E-04  0.07532
    158.  63.291  3.97E-06  9.90E-06  1.69E-07  4.21E-07  0.00E+00  0.00E+00  4.13E-06  1.03E-05  1.78E-04  0.04127
    160.  62.500  3.13E-06  8.01E-06  1.07E-06  2.74E-06  0.00E+00  0.00E+00  4.20E-06  1.07E-05  1.86E-04  0.25779
    162.  61.728  2.41E-06  6.32E-06  1.86E-06  4.88E-06  0.00E+00  0.00E+00  4.27E-06  1.12E-05  1.95E-04  0.44039
    164.  60.976  2.06E-06  5.53E-06  2.28E-06  6.14E-06  0.00E+00  0.00E+00  4.34E-06  1.17E-05  2.03E-04  0.53127
    166.  60.241  3.75E-06  1.03E-05  7.05E-07  1.94E-06  0.00E+00  0.00E+00  4.46E-06  1.23E-05  2.12E-04  0.16194
    168.  59.524  3.96E-06  1.12E-05  5.80E-07  1.64E-06  0.00E+00  0.00E+00  4.54E-06  1.28E-05  2.21E-04  0.12995
    170.  58.824  4.58E-06  1.32E-05  6.03E-08  1.74E-07  0.00E+00  0.00E+00  4.64E-06  1.34E-05  2.30E-04  0.01336
    172.  58.140  4.35E-06  1.29E-05  3.66E-07  1.08E-06  0.00E+00  0.00E+00  4.71E-06  1.39E-05  2.40E-04  0.07896
    174.  57.471  4.44E-06  1.35E-05  3.55E-07  1.07E-06  0.00E+00  0.00E+00  4.80E-06  1.45E-05  2.49E-04  0.07494
    176.  56.818  4.59E-06  1.42E-05  2.91E-07  9.01E-07  0.00E+00  0.00E+00  4.88E-06  1.51E-05  2.59E-04  0.06117
    178.  56.180  4.88E-06  1.55E-05  9.52E-08  3.02E-07  0.00E+00  0.00E+00  4.97E-06  1.58E-05  2.69E-04  0.01942
    180.  55.556  4.23E-06  1.37E-05  8.17E-07  2.65E-06  0.00E+00  0.00E+00  5.04E-06  1.63E-05  2.79E-04  0.16479
    182.  54.945  4.51E-06  1.49E-05  6.19E-07  2.05E-06  0.00E+00  0.00E+00  5.13E-06  1.70E-05  2.90E-04  0.12239
    184.  54.348  2.88E-06  9.75E-06  2.30E-06  7.79E-06  0.00E+00  0.00E+00  5.18E-06  1.75E-05  3.00E-04  0.44861
    186.  53.763  2.75E-06  9.50E-06  2.52E-06  8.71E-06  0.00E+00  0.00E+00  5.26E-06  1.82E-05  3.10E-04  0.48374
    188.  53.191  4.78E-06  1.69E-05  6.04E-07  2.14E-06  0.00E+00  0.00E+00  5.39E-06  1.90E-05  3.21E-04  0.11485
    190.  52.632  3.25E-06  1.17E-05  2.19E-06  7.90E-06  0.00E+00  0.00E+00  5.44E-06  1.96E-05  3.32E-04  0.40595
    192.  52.083  3.22E-06  1.19E-05  2.30E-06  8.49E-06  0.00E+00  0.00E+00  5.52E-06  2.04E-05  3.43E-04  0.42287
    194.  51.546  5.11E-06  1.92E-05  5.38E-07  2.02E-06  0.00E+00  0.00E+00  5.64E-06  2.12E-05  3.54E-04  0.09679
    196.  51.020  4.75E-06  1.82E-05  9.70E-07  3.73E-06  0.00E+00  0.00E+00  5.72E-06  2.20E-05  3.66E-04  0.17254
    198.  50.505  4.31E-06  1.69E-05  1.48E-06  5.81E-06  0.00E+00  0.00E+00  5.79E-06  2.27E-05  3.77E-04  0.25915
1                                             RADIANCE(WATTS/CM2-STER-XXX)
0  FREQ   WAVLEN    PATH THERMAL      SURFACE EMISSION    SURFACE REFLECTED     TOTAL RADIANCE   INTEGRAL    TOTAL
  (CM-1) (MICRN)    (CM-1)   (MICRN)    (CM-1)   (MICRN)    (CM-1)   (MICRN)    (CM-1)   (MICRN)    (CM-1)   TRANS

    200.  50.000  4.79E-06  1.92E-05  1.09E-06  4.37E-06  0.00E+00  0.00E+00  5.89E-06  2.36E-05  3.89E-04  0.18941
    202.  49.505  5.95E-06  2.43E-05  4.69E-08  1.91E-07  0.00E+00  0.00E+00  5.99E-06  2.45E-05  4.01E-04  0.00803
    204.  49.020  5.79E-06  2.41E-05  2.88E-07  1.20E-06  0.00E+00  0.00E+00  6.07E-06  2.53E-05  4.13E-04  0.04795
    206.  48.544  5.03E-06  2.13E-05  1.12E-06  4.74E-06  0.00E+00  0.00E+00  6.14E-06  2.61E-05  4.26E-04  0.18496
    208.  48.077  6.12E-06  2.65E-05  1.28E-07  5.55E-07  0.00E+00  0.00E+00  6.25E-06  2.70E-05  4.38E-04  0.02106
    210.  47.619  5.11E-06  2.25E-05  1.20E-06  5.31E-06  0.00E+00  0.00E+00  6.31E-06  2.78E-05  4.51E-04  0.19330
    212.  47.170  4.83E-06  2.17E-05  1.56E-06  6.99E-06  0.00E+00  0.00E+00  6.39E-06  2.87E-05  4.64E-04  0.24761
    214.  46.729  6.14E-06  2.81E-05  3.61E-07  1.65E-06  0.00E+00  0.00E+00  6.50E-06  2.98E-05  4.77E-04  0.05650
    216.  46.296  3.92E-06  1.83E-05  2.62E-06  1.22E-05  0.00E+00  0.00E+00  6.54E-06  3.05E-05  4.90E-04  0.40412
    218.  45.872  2.81E-06  1.33E-05  3.79E-06  1.80E-05  0.00E+00  0.00E+00  6.60E-06  3.14E-05  5.03E-04  0.57960
    220.  45.455  4.12E-06  2.00E-05  2.58E-06  1.25E-05  0.00E+00  0.00E+00  6.71E-06  3.25E-05  5.16E-04  0.39088
    222.  45.045  6.63E-06  3.27E-05  2.09E-07  1.03E-06  0.00E+00  0.00E+00  6.84E-06  3.37E-05  5.30E-04  0.03107
    224.  44.643  6.39E-06  3.21E-05  5.31E-07  2.66E-06  0.00E+00  0.00E+00  6.92E-06  3.47E-05  5.44E-04  0.07805
    226.  44.248  6.71E-06  3.43E-05  3.02E-07  1.54E-06  0.00E+00  0.00E+00  7.01E-06  3.58E-05  5.58E-04  0.04416
    228.  43.860  6.94E-06  3.61E-05  1.55E-07  8.04E-07  0.00E+00  0.00E+00  7.10E-06  3.69E-05  5.72E-04  0.02211
    230.  43.478  5.60E-06  2.96E-05  1.55E-06  8.22E-06  0.00E+00  0.00E+00  7.15E-06  3.78E-05  5.86E-04  0.22070
    232.  43.103  5.59E-06  3.01E-05  1.65E-06  8.88E-06  0.00E+00  0.00E+00  7.24E-06  3.89E-05  6.01E-04  0.23132
    234.  42.735  3.54E-06  1.94E-05  3.74E-06  2.05E-05  0.00E+00  0.00E+00  7.28E-06  3.98E-05  6.15E-04  0.51784
    236.  42.373  2.34E-06  1.31E-05  4.99E-06  2.78E-05  0.00E+00  0.00E+00  7.34E-06  4.09E-05  6.30E-04  0.68464
    238.  42.017  2.08E-06  1.18E-05  5.33E-06  3.02E-05  0.00E+00  0.00E+00  7.41E-06  4.20E-05  6.45E-04  0.72375
    240.  41.667  2.14E-06  1.23E-05  5.36E-06  3.08E-05  0.00E+00  0.00E+00  7.49E-06  4.32E-05  6.60E-04  0.71869
    242.  41.322  2.67E-06  1.56E-05  4.92E-06  2.88E-05  0.00E+00  0.00E+00  7.59E-06  4.44E-05  6.75E-04  0.65303
    244.  40.984  6.08E-06  3.62E-05  1.66E-06  9.86E-06  0.00E+00  0.00E+00  7.74E-06  4.61E-05  6.90E-04  0.21817
    246.  40.650  7.75E-06  4.69E-05  9.73E-08  5.89E-07  0.00E+00  0.00E+00  7.85E-06  4.75E-05  7.06E-04  0.01265
    248.  40.323  7.75E-06  4.77E-05  1.80E-07  1.11E-06  0.00E+00  0.00E+00  7.93E-06  4.88E-05  7.22E-04  0.02306
    250.  40.000  6.02E-06  3.77E-05  1.95E-06  1.22E-05  0.00E+00  0.00E+00  7.98E-06  4.99E-05  7.38E-04  0.24835
    252.  39.683  6.54E-06  4.15E-05  1.53E-06  9.72E-06  0.00E+00  0.00E+00  8.07E-06  5.12E-05  7.54E-04  0.19321
    254.  39.370  8.03E-06  5.18E-05  1.49E-07  9.63E-07  0.00E+00  0.00E+00  8.18E-06  5.28E-05  7.70E-04  0.01852
    256.  39.063  5.97E-06  3.91E-05  2.25E-06  1.47E-05  0.00E+00  0.00E+00  8.22E-06  5.39E-05  7.87E-04  0.27715
    258.  38.760  3.29E-06  2.19E-05  4.96E-06  3.30E-05  0.00E+00  0.00E+00  8.24E-06  5.49E-05  8.03E-04  0.60596
    260.  38.462  2.19E-06  1.48E-05  6.11E-06  4.13E-05  0.00E+00  0.00E+00  8.30E-06  5.61E-05  8.20E-04  0.74016
    262.  38.168  2.27E-06  1.56E-05  6.11E-06  4.20E-05  0.00E+00  0.00E+00  8.38E-06  5.75E-05  8.37E-04  0.73354
    264.  37.879  2.89E-06  2.02E-05  5.58E-06  3.89E-05  0.00E+00  0.00E+00  8.47E-06  5.91E-05  8.54E-04  0.66315
    266.  37.594  6.50E-06  4.60E-05  2.12E-06  1.50E-05  0.00E+00  0.00E+00  8.62E-06  6.10E-05  8.71E-04  0.25049
    268.  37.313  4.41E-06  3.17E-05  4.25E-06  3.06E-05  0.00E+00  0.00E+00  8.66E-06  6.22E-05  8.88E-04  0.49564
    270.  37.037  2.05E-06  1.49E-05  6.64E-06  4.84E-05  0.00E+00  0.00E+00  8.69E-06  6.34E-05  9.06E-04  0.76802
    272.  36.765  3.10E-06  2.29E-05  5.69E-06  4.21E-05  0.00E+00  0.00E+00  8.79E-06  6.50E-05  9.23E-04  0.65220
    274.  36.496  3.19E-06  2.39E-05  5.68E-06  4.27E-05  0.00E+00  0.00E+00  8.87E-06  6.66E-05  9.41E-04  0.64552
    276.  36.232  7.14E-06  5.44E-05  1.89E-06  1.44E-05  0.00E+00  0.00E+00  9.03E-06  6.88E-05  9.59E-04  0.21280
    278.  35.971  8.89E-06  6.87E-05  2.50E-07  1.93E-06  0.00E+00  0.00E+00  9.14E-06  7.06E-05  9.77E-04  0.02802
    280.  35.714  8.98E-06  7.04E-05  2.33E-07  1.83E-06  0.00E+00  0.00E+00  9.22E-06  7.23E-05  9.96E-04  0.02572
    282.  35.461  9.09E-06  7.23E-05  2.09E-07  1.66E-06  0.00E+00  0.00E+00  9.29E-06  7.39E-05  1.01E-03  0.02295
    284.  35.211  5.73E-06  4.62E-05  3.57E-06  2.88E-05  0.00E+00  0.00E+00  9.30E-06  7.50E-05  1.03E-03  0.38836
    286.  34.965  3.79E-06  3.10E-05  5.55E-06  4.54E-05  0.00E+00  0.00E+00  9.34E-06  7.64E-05  1.05E-03  0.59926
    288.  34.722  5.65E-06  4.68E-05  3.81E-06  3.16E-05  0.00E+00  0.00E+00  9.45E-06  7.84E-05  1.07E-03  0.40822
    290.  34.483  8.38E-06  7.05E-05  1.20E-06  1.01E-05  0.00E+00  0.00E+00  9.58E-06  8.06E-05  1.09E-03  0.12751
    292.  34.247  3.45E-06  2.94E-05  6.11E-06  5.21E-05  0.00E+00  0.00E+00  9.56E-06  8.15E-05  1.11E-03  0.64300
    294.  34.014  1.89E-06  1.63E-05  7.71E-06  6.67E-05  0.00E+00  0.00E+00  9.60E-06  8.30E-05  1.13E-03  0.80665
    296.  33.784  2.18E-06  1.91E-05  7.50E-06  6.57E-05  0.00E+00  0.00E+00  9.68E-06  8.48E-05  1.15E-03  0.77873
    298.  33.557  4.73E-06  4.20E-05  5.07E-06  4.50E-05  0.00E+00  0.00E+00  9.80E-06  8.71E-05  1.17E-03  0.52253
1                                             RADIANCE(WATTS/CM2-STER-XXX)
0  FREQ   WAVLEN    PATH THERMAL      SURFACE EMISSION    SURFACE REFLECTED     TOTAL RADIANCE   INTEGRAL    TOTAL
  (CM-1) (MICRN)    (CM-1)   (MICRN)    (CM-1)   (MICRN)    (CM-1)   (MICRN)    (CM-1)   (MICRN)    (CM-1)   TRANS

    300.  33.333  5.37E-06  4.83E-05  4.52E-06  4.07E-05  0.00E+00  0.00E+00  9.89E-06  8.90E-05  1.19E-03  0.46280
    302.  33.113  9.50E-06  8.66E-05  5.46E-07  4.98E-06  0.00E+00  0.00E+00  1.00E-05  9.16E-05  1.21E-03  0.05563
    304.  32.895  8.86E-06  8.19E-05  1.24E-06  1.14E-05  0.00E+00  0.00E+00  1.01E-05  9.34E-05  1.23E-03  0.12439
    306.  32.680  3.66E-06  3.42E-05  6.41E-06  6.01E-05  0.00E+00  0.00E+00  1.01E-05  9.43E-05  1.25E-03  0.64133
    308.  32.468  2.30E-06  2.18E-05  7.81E-06  7.41E-05  0.00E+00  0.00E+00  1.01E-05  9.59E-05  1.27E-03  0.77602
    310.  32.258  1.97E-06  1.89E-05  8.21E-06  7.89E-05  0.00E+00  0.00E+00  1.02E-05  9.78E-05  1.29E-03  0.80931
    312.  32.051  2.33E-06  2.27E-05  7.93E-06  7.71E-05  0.00E+00  0.00E+00  1.03E-05  9.98E-05  1.31E-03  0.77629
    314.  31.847  4.00E-06  3.94E-05  6.36E-06  6.27E-05  0.00E+00  0.00E+00  1.04E-05  1.02E-04  1.33E-03  0.61933
    316.  31.646  4.99E-06  4.99E-05  5.46E-06  5.45E-05  0.00E+00  0.00E+00  1.04E-05  1.04E-04  1.35E-03  0.52667
    318.  31.447  1.54E-06  1.55E-05  8.91E-06  9.01E-05  0.00E+00  0.00E+00  1.04E-05  1.06E-04  1.37E-03  0.85537
    320.  31.250  2.07E-06  2.12E-05  8.46E-06  8.66E-05  0.00E+00  0.00E+00  1.05E-05  1.08E-04  1.39E-03  0.80695
    322.  31.056  4.72E-06  4.89E-05  5.93E-06  6.15E-05  0.00E+00  0.00E+00  1.06E-05  1.10E-04  1.41E-03  0.56256
    324.  30.864  9.08E-06  9.53E-05  1.72E-06  1.81E-05  0.00E+00  0.00E+00  1.08E-05  1.13E-04  1.43E-03  0.16175
    326.  30.675  5.89E-06  6.26E-05  4.92E-06  5.22E-05  0.00E+00  0.00E+00  1.08E-05  1.15E-04  1.46E-03  0.46012
    328.  30.488  9.50E-06  1.02E-04  1.44E-06  1.55E-05  0.00E+00  0.00E+00  1.09E-05  1.18E-04  1.48E-03  0.13409
    330.  30.303  3.51E-06  3.82E-05  7.38E-06  8.04E-05  0.00E+00  0.00E+00  1.09E-05  1.19E-04  1.50E-03  0.68165
    332.  30.120  1.79E-06  1.98E-05  9.13E-06  1.01E-04  0.00E+00  0.00E+00  1.09E-05  1.20E-04  1.52E-03  0.83858
    334.  29.940  4.63E-06  5.17E-05  6.42E-06  7.16E-05  0.00E+00  0.00E+00  1.10E-05  1.23E-04  1.54E-03  0.58621
    336.  29.762  6.46E-06  7.29E-05  4.69E-06  5.29E-05  0.00E+00  0.00E+00  1.11E-05  1.26E-04  1.57E-03  0.42507
    338.  29.586  1.59E-06  1.82E-05  9.52E-06  1.09E-04  0.00E+00  0.00E+00  1.11E-05  1.27E-04  1.59E-03  0.85896
    340.  29.412  4.19E-06  4.84E-05  7.04E-06  8.14E-05  0.00E+00  0.00E+00  1.12E-05  1.30E-04  1.61E-03  0.63231
    342.  29.240  4.66E-06  5.45E-05  6.65E-06  7.77E-05  0.00E+00  0.00E+00  1.13E-05  1.32E-04  1.63E-03  0.59289
    344.  29.070  3.36E-06  3.97E-05  7.98E-06  9.45E-05  0.00E+00  0.00E+00  1.13E-05  1.34E-04  1.66E-03  0.70786
    346.  28.902  1.96E-06  2.35E-05  9.41E-06  1.13E-04  0.00E+00  0.00E+00  1.14E-05  1.36E-04  1.68E-03  0.83022
    348.  28.736  3.51E-06  4.26E-05  7.95E-06  9.63E-05  0.00E+00  0.00E+00  1.15E-05  1.39E-04  1.70E-03  0.69813
    350.  28.571  9.04E-06  1.11E-04  2.60E-06  3.18E-05  0.00E+00  0.00E+00  1.16E-05  1.43E-04  1.73E-03  0.22654
    352.  28.409  8.85E-06  1.10E-04  2.85E-06  3.53E-05  0.00E+00  0.00E+00  1.17E-05  1.45E-04  1.75E-03  0.24711
    354.  28.249  8.85E-06  1.11E-04  2.91E-06  3.64E-05  0.00E+00  0.00E+00  1.18E-05  1.47E-04  1.77E-03  0.25146
    356.  28.090  6.46E-06  8.18E-05  5.31E-06  6.73E-05  0.00E+00  0.00E+00  1.18E-05  1.49E-04  1.80E-03  0.45639
    358.  27.933  7.16E-06  9.18E-05  4.68E-06  6.00E-05  0.00E+00  0.00E+00  1.18E-05  1.52E-04  1.82E-03  0.39955
    360.  27.778  1.64E-06  2.13E-05  1.02E-05  1.32E-04  0.00E+00  0.00E+00  1.18E-05  1.53E-04  1.84E-03  0.86309
    362.  27.624  1.00E-06  1.32E-05  1.08E-05  1.42E-04  0.00E+00  0.00E+00  1.18E-05  1.55E-04  1.87E-03  0.91676
    364.  27.473  8.49E-07  1.13E-05  1.10E-05  1.46E-04  0.00E+00  0.00E+00  1.19E-05  1.58E-04  1.89E-03  0.92988
    366.  27.322  6.92E-07  9.27E-06  1.13E-05  1.51E-04  0.00E+00  0.00E+00  1.19E-05  1.60E-04  1.91E-03  0.94317
    368.  27.174  1.67E-06  2.26E-05  1.04E-05  1.40E-04  0.00E+00  0.00E+00  1.20E-05  1.63E-04  1.94E-03  0.86405
    370.  27.027  5.07E-06  6.94E-05  7.07E-06  9.68E-05  0.00E+00  0.00E+00  1.21E-05  1.66E-04  1.96E-03  0.58716
    372.  26.882  1.43E-06  1.98E-05  1.07E-05  1.48E-04  0.00E+00  0.00E+00  1.21E-05  1.68E-04  1.99E-03  0.88443
    374.  26.738  7.79E-06  1.09E-04  4.52E-06  6.32E-05  0.00E+00  0.00E+00  1.23E-05  1.72E-04  2.01E-03  0.37219
    376.  26.596  8.43E-06  1.19E-04  3.95E-06  5.58E-05  0.00E+00  0.00E+00  1.24E-05  1.75E-04  2.04E-03  0.32319
    378.  26.455  1.99E-06  2.84E-05  1.03E-05  1.47E-04  0.00E+00  0.00E+00  1.23E-05  1.76E-04  2.06E-03  0.84120
    380.  26.316  9.46E-07  1.37E-05  1.14E-05  1.65E-04  0.00E+00  0.00E+00  1.23E-05  1.78E-04  2.09E-03  0.92475
    382.  26.178  9.09E-07  1.33E-05  1.15E-05  1.68E-04  0.00E+00  0.00E+00  1.24E-05  1.81E-04  2.11E-03  0.92805
    384.  26.042  5.02E-06  7.40E-05  7.51E-06  1.11E-04  0.00E+00  0.00E+00  1.25E-05  1.85E-04  2.14E-03  0.60459
    386.  25.907  4.21E-06  6.27E-05  8.35E-06  1.24E-04  0.00E+00  0.00E+00  1.26E-05  1.87E-04  2.16E-03  0.66921
    388.  25.773  5.91E-07  8.90E-06  1.19E-05  1.80E-04  0.00E+00  0.00E+00  1.25E-05  1.89E-04  2.19E-03  0.95375
    390.  25.641  5.87E-07  8.93E-06  1.20E-05  1.83E-04  0.00E+00  0.00E+00  1.26E-05  1.92E-04  2.21E-03  0.95427
    392.  25.510  7.21E-07  1.11E-05  1.19E-05  1.83E-04  0.00E+00  0.00E+00  1.26E-05  1.94E-04  2.24E-03  0.94412
    394.  25.381  4.98E-06  7.73E-05  7.80E-06  1.21E-04  0.00E+00  0.00E+00  1.28E-05  1.98E-04  2.26E-03  0.61515
    396.  25.253  6.80E-06  1.07E-04  6.07E-06  9.51E-05  0.00E+00  0.00E+00  1.29E-05  2.02E-04  2.29E-03  0.47683
    398.  25.126  9.51E-06  1.51E-04  3.46E-06  5.47E-05  0.00E+00  0.00E+00  1.30E-05  2.05E-04  2.31E-03  0.27040
1                                             RADIANCE(WATTS/CM2-STER-XXX)
0  FREQ   WAVLEN    PATH THERMAL      SURFACE EMISSION    SURFACE REFLECTED     TOTAL RADIANCE   INTEGRAL    TOTAL
  (CM-1) (MICRN)    (CM-1)   (MICRN)    (CM-1)   (MICRN)    (CM-1)   (MICRN)    (CM-1)   (MICRN)    (CM-1)   TRANS

    400.  25.000  6.51E-06  1.04E-04  6.44E-06  1.03E-04  0.00E+00  0.00E+00  1.30E-05  2.07E-04  2.34E-03  0.50204
    402.  24.876  8.88E-07  1.44E-05  1.20E-05  1.94E-04  0.00E+00  0.00E+00  1.29E-05  2.08E-04  2.37E-03  0.93234
    404.  24.752  5.14E-07  8.39E-06  1.24E-05  2.03E-04  0.00E+00  0.00E+00  1.29E-05  2.11E-04  2.39E-03  0.96104
    406.  24.631  4.60E-07  7.58E-06  1.25E-05  2.06E-04  0.00E+00  0.00E+00  1.30E-05  2.14E-04  2.42E-03  0.96524
    408.  24.510  3.34E-07  5.56E-06  1.27E-05  2.11E-04  0.00E+00  0.00E+00  1.30E-05  2.17E-04  2.44E-03  0.97485
    410.  24.390  3.36E-07  5.65E-06  1.27E-05  2.14E-04  0.00E+00  0.00E+00  1.31E-05  2.20E-04  2.47E-03  0.97480
    412.  24.272  3.41E-07  5.79E-06  1.28E-05  2.17E-04  0.00E+00  0.00E+00  1.31E-05  2.23E-04  2.50E-03  0.97451
    414.  24.155  4.82E-07  8.26E-06  1.27E-05  2.17E-04  0.00E+00  0.00E+00  1.32E-05  2.26E-04  2.52E-03  0.96408
    416.  24.038  1.09E-06  1.89E-05  1.21E-05  2.10E-04  0.00E+00  0.00E+00  1.32E-05  2.29E-04  2.55E-03  0.91898
    418.  23.923  8.38E-06  1.46E-04  5.03E-06  8.78E-05  0.00E+00  0.00E+00  1.34E-05  2.34E-04  2.57E-03  0.37990
    420.  23.810  7.16E-06  1.26E-04  6.27E-06  1.11E-04  0.00E+00  0.00E+00  1.34E-05  2.37E-04  2.60E-03  0.47160
    422.  23.697  2.93E-06  5.23E-05  1.04E-05  1.86E-04  0.00E+00  0.00E+00  1.34E-05  2.38E-04  2.63E-03  0.78430
    424.  23.585  3.43E-06  6.16E-05  1.00E-05  1.80E-04  0.00E+00  0.00E+00  1.34E-05  2.42E-04  2.66E-03  0.74869
    426.  23.474  2.03E-06  3.69E-05  1.14E-05  2.07E-04  0.00E+00  0.00E+00  1.34E-05  2.44E-04  2.68E-03  0.85142
    428.  23.364  3.70E-07  6.78E-06  1.31E-05  2.40E-04  0.00E+00  0.00E+00  1.35E-05  2.46E-04  2.71E-03  0.97303
    430.  23.256  9.29E-07  1.72E-05  1.26E-05  2.33E-04  0.00E+00  0.00E+00  1.35E-05  2.50E-04  2.74E-03  0.93259
    432.  23.148  1.01E-06  1.88E-05  1.25E-05  2.34E-04  0.00E+00  0.00E+00  1.35E-05  2.53E-04  2.76E-03  0.92677
    434.  23.041  7.94E-07  1.50E-05  1.28E-05  2.41E-04  0.00E+00  0.00E+00  1.36E-05  2.56E-04  2.79E-03  0.94267
    436.  22.936  2.78E-06  5.29E-05  1.09E-05  2.07E-04  0.00E+00  0.00E+00  1.37E-05  2.60E-04  2.82E-03  0.79945
    438.  22.831  3.81E-07  7.31E-06  1.33E-05  2.55E-04  0.00E+00  0.00E+00  1.37E-05  2.62E-04  2.84E-03  0.97262
    440.  22.727  3.72E-07  7.19E-06  1.33E-05  2.58E-04  0.00E+00  0.00E+00  1.37E-05  2.65E-04  2.87E-03  0.97339
    442.  22.624  3.37E-06  6.59E-05  1.04E-05  2.03E-04  0.00E+00  0.00E+00  1.38E-05  2.69E-04  2.90E-03  0.75909
    444.  22.523  2.65E-06  5.22E-05  1.12E-05  2.20E-04  0.00E+00  0.00E+00  1.38E-05  2.72E-04  2.93E-03  0.81115
    446.  22.422  1.91E-06  3.81E-05  1.19E-05  2.37E-04  0.00E+00  0.00E+00  1.38E-05  2.75E-04  2.96E-03  0.86410
    448.  22.321  1.08E-06  2.17E-05  1.28E-05  2.56E-04  0.00E+00  0.00E+00  1.38E-05  2.78E-04  2.98E-03  0.92325
    450.  22.222  3.09E-07  6.25E-06  1.36E-05  2.75E-04  0.00E+00  0.00E+00  1.39E-05  2.81E-04  3.01E-03  0.97818
    452.  22.124  1.87E-06  3.82E-05  1.21E-05  2.46E-04  0.00E+00  0.00E+00  1.39E-05  2.85E-04  3.04E-03  0.86824
    454.  22.026  1.38E-06  2.84E-05  1.26E-05  2.59E-04  0.00E+00  0.00E+00  1.40E-05  2.88E-04  3.07E-03  0.90292
    456.  21.930  1.87E-06  3.89E-05  1.21E-05  2.52E-04  0.00E+00  0.00E+00  1.40E-05  2.91E-04  3.09E-03  0.86889
    458.  21.834  6.67E-06  1.40E-04  7.46E-06  1.56E-04  0.00E+00  0.00E+00  1.41E-05  2.96E-04  3.12E-03  0.53278
    460.  21.739  1.19E-06  2.51E-05  1.29E-05  2.72E-04  0.00E+00  0.00E+00  1.40E-05  2.97E-04  3.15E-03  0.91701
    462.  21.645  1.00E-06  2.14E-05  1.31E-05  2.79E-04  0.00E+00  0.00E+00  1.41E-05  3.00E-04  3.18E-03  0.92990
    464.  21.552  2.19E-07  4.71E-06  1.39E-05  2.99E-04  0.00E+00  0.00E+00  1.41E-05  3.03E-04  3.21E-03  0.98478
    466.  21.459  3.08E-07  6.68E-06  1.38E-05  3.00E-04  0.00E+00  0.00E+00  1.41E-05  3.07E-04  3.24E-03  0.97865
    468.  21.368  2.09E-06  4.58E-05  1.21E-05  2.65E-04  0.00E+00  0.00E+00  1.42E-05  3.11E-04  3.26E-03  0.85506
    470.  21.277  7.95E-07  1.76E-05  1.34E-05  2.96E-04  0.00E+00  0.00E+00  1.42E-05  3.13E-04  3.29E-03  0.94505
    472.  21.186  4.87E-06  1.08E-04  9.44E-06  2.10E-04  0.00E+00  0.00E+00  1.43E-05  3.19E-04  3.32E-03  0.66436
    474.  21.097  1.90E-06  4.26E-05  1.24E-05  2.78E-04  0.00E+00  0.00E+00  1.43E-05  3.21E-04  3.35E-03  0.86924
    476.  21.008  9.67E-07  2.19E-05  1.33E-05  3.02E-04  0.00E+00  0.00E+00  1.43E-05  3.24E-04  3.38E-03  0.93356
    478.  20.921  1.71E-07  3.91E-06  1.41E-05  3.23E-04  0.00E+00  0.00E+00  1.43E-05  3.27E-04  3.41E-03  0.98826
    480.  20.833  3.14E-07  7.22E-06  1.40E-05  3.23E-04  0.00E+00  0.00E+00  1.43E-05  3.30E-04  3.43E-03  0.97854
    482.  20.747  4.99E-07  1.16E-05  1.39E-05  3.22E-04  0.00E+00  0.00E+00  1.43E-05  3.33E-04  3.46E-03  0.96590
    484.  20.661  2.36E-06  5.53E-05  1.21E-05  2.82E-04  0.00E+00  0.00E+00  1.44E-05  3.38E-04  3.49E-03  0.83905
    486.  20.576  1.00E-06  2.37E-05  1.34E-05  3.17E-04  0.00E+00  0.00E+00  1.44E-05  3.40E-04  3.52E-03  0.93178
    488.  20.492  1.64E-07  3.90E-06  1.43E-05  3.39E-04  0.00E+00  0.00E+00  1.44E-05  3.43E-04  3.55E-03  0.98887
    490.  20.408  2.40E-07  5.77E-06  1.42E-05  3.41E-04  0.00E+00  0.00E+00  1.44E-05  3.47E-04  3.58E-03  0.98369
    492.  20.325  2.02E-06  4.90E-05  1.25E-05  3.02E-04  0.00E+00  0.00E+00  1.45E-05  3.51E-04  3.61E-03  0.86291
    494.  20.243  4.23E-07  1.03E-05  1.41E-05  3.43E-04  0.00E+00  0.00E+00  1.45E-05  3.54E-04  3.64E-03  0.97137
    496.  20.161  1.23E-07  3.02E-06  1.44E-05  3.54E-04  0.00E+00  0.00E+00  1.45E-05  3.57E-04  3.67E-03  0.99172
    498.  20.080  1.20E-07  2.97E-06  1.44E-05  3.57E-04  0.00E+00  0.00E+00  1.45E-05  3.60E-04  3.70E-03  0.99192
1                                             RADIANCE(WATTS/CM2-STER-XXX)
0  FREQ   WAVLEN    PATH THERMAL      SURFACE EMISSION    SURFACE REFLECTED     TOTAL RADIANCE   INTEGRAL    TOTAL
  (CM-1) (MICRN)    (CM-1)   (MICRN)    (CM-1)   (MICRN)    (CM-1)   (MICRN)    (CM-1)   (MICRN)    (CM-1)   TRANS

    500.  20.000  2.18E-07  5.46E-06  1.43E-05  3.58E-04  0.00E+00  0.00E+00  1.46E-05  3.64E-04  3.72E-03  0.98529
    502.  19.920  3.24E-06  8.17E-05  1.14E-05  2.87E-04  0.00E+00  0.00E+00  1.46E-05  3.69E-04  3.75E-03  0.78187
    504.  19.841  6.65E-07  1.69E-05  1.39E-05  3.54E-04  0.00E+00  0.00E+00  1.46E-05  3.71E-04  3.78E-03  0.95535
    506.  19.763  1.37E-06  3.50E-05  1.33E-05  3.40E-04  0.00E+00  0.00E+00  1.46E-05  3.75E-04  3.81E-03  0.90846
    508.  19.685  1.18E-06  3.04E-05  1.35E-05  3.48E-04  0.00E+00  0.00E+00  1.47E-05  3.78E-04  3.84E-03  0.92113
    510.  19.608  5.94E-07  1.54E-05  1.41E-05  3.66E-04  0.00E+00  0.00E+00  1.47E-05  3.81E-04  3.87E-03  0.96030
    512.  19.531  3.35E-07  8.78E-06  1.43E-05  3.76E-04  0.00E+00  0.00E+00  1.47E-05  3.85E-04  3.90E-03  0.97761
    514.  19.455  3.93E-07  1.04E-05  1.43E-05  3.78E-04  0.00E+00  0.00E+00  1.47E-05  3.88E-04  3.93E-03  0.97376
    516.  19.380  1.53E-06  4.08E-05  1.32E-05  3.51E-04  0.00E+00  0.00E+00  1.47E-05  3.92E-04  3.96E-03  0.89787
    518.  19.305  2.69E-06  7.23E-05  1.21E-05  3.24E-04  0.00E+00  0.00E+00  1.48E-05  3.96E-04  3.99E-03  0.82058
    520.  19.231  2.17E-06  5.86E-05  1.26E-05  3.41E-04  0.00E+00  0.00E+00  1.48E-05  4.00E-04  4.02E-03  0.85583
    522.  19.157  1.51E-07  4.13E-06  1.46E-05  3.98E-04  0.00E+00  0.00E+00  1.48E-05  4.02E-04  4.05E-03  0.98993
    524.  19.084  2.94E-07  8.06E-06  1.45E-05  3.97E-04  0.00E+00  0.00E+00  1.48E-05  4.06E-04  4.08E-03  0.98052
    526.  19.011  2.74E-06  7.59E-05  1.21E-05  3.34E-04  0.00E+00  0.00E+00  1.48E-05  4.10E-04  4.11E-03  0.81805
    528.  18.939  1.46E-07  4.07E-06  1.46E-05  4.08E-04  0.00E+00  0.00E+00  1.48E-05  4.12E-04  4.14E-03  0.99033
    530.  18.868  9.29E-08  2.61E-06  1.47E-05  4.13E-04  0.00E+00  0.00E+00  1.48E-05  4.16E-04  4.17E-03  0.99385
    532.  18.797  8.37E-08  2.37E-06  1.47E-05  4.17E-04  0.00E+00  0.00E+00  1.48E-05  4.19E-04  4.20E-03  0.99446
    534.  18.727  1.73E-07  4.92E-06  1.47E-05  4.18E-04  0.00E+00  0.00E+00  1.48E-05  4.23E-04  4.23E-03  0.98859
    536.  18.657  6.14E-07  1.76E-05  1.42E-05  4.09E-04  0.00E+00  0.00E+00  1.49E-05  4.27E-04  4.25E-03  0.95947
    538.  18.587  1.26E-07  3.63E-06  1.47E-05  4.26E-04  0.00E+00  0.00E+00  1.49E-05  4.30E-04  4.28E-03  0.99171
    540.  18.519  2.15E-07  6.28E-06  1.47E-05  4.27E-04  0.00E+00  0.00E+00  1.49E-05  4.34E-04  4.31E-03  0.98581
    542.  18.450  1.79E-07  5.26E-06  1.47E-05  4.32E-04  0.00E+00  0.00E+00  1.49E-05  4.37E-04  4.34E-03  0.98821
    544.  18.382  4.02E-07  1.19E-05  1.45E-05  4.29E-04  0.00E+00  0.00E+00  1.49E-05  4.41E-04  4.37E-03  0.97356
    546.  18.315  1.26E-06  3.76E-05  1.37E-05  4.07E-04  0.00E+00  0.00E+00  1.49E-05  4.45E-04  4.40E-03  0.91701
    548.  18.248  6.83E-07  2.05E-05  1.42E-05  4.28E-04  0.00E+00  0.00E+00  1.49E-05  4.48E-04  4.43E-03  0.95509
    550.  18.182  9.00E-07  2.72E-05  1.40E-05  4.24E-04  0.00E+00  0.00E+00  1.49E-05  4.52E-04  4.46E-03  0.94084
    552.  18.116  1.32E-07  4.02E-06  1.48E-05  4.51E-04  0.00E+00  0.00E+00  1.49E-05  4.55E-04  4.49E-03  0.99133
    554.  18.051  2.62E-07  8.04E-06  1.47E-05  4.50E-04  0.00E+00  0.00E+00  1.49E-05  4.58E-04  4.52E-03  0.98280
    556.  17.986  2.59E-07  8.02E-06  1.47E-05  4.54E-04  0.00E+00  0.00E+00  1.49E-05  4.62E-04  4.55E-03  0.98299
    558.  17.921  1.09E-07  3.38E-06  1.48E-05  4.62E-04  0.00E+00  0.00E+00  1.49E-05  4.65E-04  4.58E-03  0.99288
    560.  17.857  6.97E-08  2.18E-06  1.49E-05  4.67E-04  0.00E+00  0.00E+00  1.50E-05  4.69E-04  4.61E-03  0.99543
    562.  17.794  1.72E-07  5.42E-06  1.48E-05  4.67E-04  0.00E+00  0.00E+00  1.50E-05  4.73E-04  4.64E-03  0.98876
    564.  17.730  2.01E-07  6.40E-06  1.48E-05  4.70E-04  0.00E+00  0.00E+00  1.50E-05  4.76E-04  4.67E-03  0.98683
    566.  17.668  5.05E-07  1.62E-05  1.45E-05  4.64E-04  0.00E+00  0.00E+00  1.50E-05  4.80E-04  4.70E-03  0.96691
    568.  17.606  1.05E-06  3.37E-05  1.39E-05  4.50E-04  0.00E+00  0.00E+00  1.50E-05  4.84E-04  4.73E-03  0.93157
    570.  17.544  7.75E-07  2.52E-05  1.42E-05  4.62E-04  0.00E+00  0.00E+00  1.50E-05  4.87E-04  4.76E-03  0.94925
    572.  17.483  2.26E-07  7.38E-06  1.48E-05  4.83E-04  0.00E+00  0.00E+00  1.50E-05  4.90E-04  4.79E-03  0.98524
    574.  17.422  8.63E-08  2.84E-06  1.49E-05  4.91E-04  0.00E+00  0.00E+00  1.50E-05  4.94E-04  4.82E-03  0.99435
    576.  17.361  1.54E-06  5.10E-05  1.35E-05  4.47E-04  0.00E+00  0.00E+00  1.50E-05  4.98E-04  4.85E-03  0.89939
    578.  17.301  1.28E-07  4.28E-06  1.49E-05  4.97E-04  0.00E+00  0.00E+00  1.50E-05  5.01E-04  4.88E-03  0.99162
    580.  17.241  7.92E-07  2.66E-05  1.42E-05  4.78E-04  0.00E+00  0.00E+00  1.50E-05  5.05E-04  4.91E-03  0.94822
    582.  17.182  7.75E-07  2.63E-05  1.42E-05  4.82E-04  0.00E+00  0.00E+00  1.50E-05  5.08E-04  4.94E-03  0.94932
    584.  17.123  3.81E-07  1.30E-05  1.46E-05  4.99E-04  0.00E+00  0.00E+00  1.50E-05  5.12E-04  4.97E-03  0.97509
    586.  17.065  3.54E-07  1.22E-05  1.46E-05  5.03E-04  0.00E+00  0.00E+00  1.50E-05  5.15E-04  5.00E-03  0.97685
    588.  17.007  6.81E-08  2.36E-06  1.49E-05  5.16E-04  0.00E+00  0.00E+00  1.50E-05  5.18E-04  5.03E-03  0.99555
    590.  16.949  1.47E-07  5.11E-06  1.48E-05  5.17E-04  0.00E+00  0.00E+00  1.50E-05  5.22E-04  5.06E-03  0.99041
    592.  16.892  1.90E-06  6.67E-05  1.31E-05  4.60E-04  0.00E+00  0.00E+00  1.50E-05  5.27E-04  5.09E-03  0.87565
    594.  16.835  3.24E-07  1.14E-05  1.47E-05  5.18E-04  0.00E+00  0.00E+00  1.50E-05  5.29E-04  5.12E-03  0.97885
    596.  16.779  2.56E-07  9.09E-06  1.47E-05  5.24E-04  0.00E+00  0.00E+00  1.50E-05  5.33E-04  5.15E-03  0.98328
    598.  16.722  8.86E-08  3.17E-06  1.49E-05  5.33E-04  0.00E+00  0.00E+00  1.50E-05  5.36E-04  5.18E-03  0.99421
1                                             RADIANCE(WATTS/CM2-STER-XXX)
0  FREQ   WAVLEN    PATH THERMAL      SURFACE EMISSION    SURFACE REFLECTED     TOTAL RADIANCE   INTEGRAL    TOTAL
  (CM-1) (MICRN)    (CM-1)   (MICRN)    (CM-1)   (MICRN)    (CM-1)   (MICRN)    (CM-1)   (MICRN)    (CM-1)   TRANS

    600.  16.667  8.37E-07  3.01E-05  1.42E-05  5.10E-04  0.00E+00  0.00E+00  1.50E-05  5.40E-04  5.21E-03  0.94526
    602.  16.611  9.35E-08  3.39E-06  1.49E-05  5.40E-04  0.00E+00  0.00E+00  1.50E-05  5.43E-04  5.24E-03  0.99389
    604.  16.556  2.20E-07  8.03E-06  1.48E-05  5.39E-04  0.00E+00  0.00E+00  1.50E-05  5.47E-04  5.27E-03  0.98560
    606.  16.502  7.75E-08  2.84E-06  1.49E-05  5.47E-04  0.00E+00  0.00E+00  1.50E-05  5.50E-04  5.30E-03  0.99493
    608.  16.447  7.56E-08  2.80E-06  1.49E-05  5.51E-04  0.00E+00  0.00E+00  1.50E-05  5.54E-04  5.33E-03  0.99505
    610.  16.393  6.80E-08  2.53E-06  1.49E-05  5.54E-04  0.00E+00  0.00E+00  1.50E-05  5.57E-04  5.36E-03  0.99555
    612.  16.340  1.14E-07  4.26E-06  1.49E-05  5.56E-04  0.00E+00  0.00E+00  1.50E-05  5.61E-04  5.39E-03  0.99255
    614.  16.287  1.31E-07  4.93E-06  1.48E-05  5.59E-04  0.00E+00  0.00E+00  1.50E-05  5.64E-04  5.42E-03  0.99143
    616.  16.234  8.22E-07  3.12E-05  1.41E-05  5.37E-04  0.00E+00  0.00E+00  1.50E-05  5.68E-04  5.45E-03  0.94614
    618.  16.181  4.94E-07  1.89E-05  1.45E-05  5.52E-04  0.00E+00  0.00E+00  1.50E-05  5.71E-04  5.48E-03  0.96763
    620.  16.129  1.91E-07  7.34E-06  1.48E-05  5.67E-04  0.00E+00  0.00E+00  1.49E-05  5.74E-04  5.51E-03  0.98747
    622.  16.077  1.78E-07  6.89E-06  1.48E-05  5.71E-04  0.00E+00  0.00E+00  1.49E-05  5.78E-04  5.54E-03  0.98831
    624.  16.026  4.42E-07  1.72E-05  1.45E-05  5.64E-04  0.00E+00  0.00E+00  1.49E-05  5.82E-04  5.57E-03  0.97095
    626.  15.974  5.75E-07  2.25E-05  1.44E-05  5.63E-04  0.00E+00  0.00E+00  1.49E-05  5.85E-04  5.60E-03  0.96224
    628.  15.924  1.27E-07  4.99E-06  1.48E-05  5.83E-04  0.00E+00  0.00E+00  1.49E-05  5.88E-04  5.63E-03  0.99168
    630.  15.873  1.31E-07  5.20E-06  1.48E-05  5.86E-04  0.00E+00  0.00E+00  1.49E-05  5.92E-04  5.66E-03  0.99138
    632.  15.823  3.44E-07  1.38E-05  1.46E-05  5.81E-04  0.00E+00  0.00E+00  1.49E-05  5.95E-04  5.69E-03  0.97734
    634.  15.773  7.72E-07  3.10E-05  1.41E-05  5.68E-04  0.00E+00  0.00E+00  1.49E-05  5.99E-04  5.72E-03  0.94918
    636.  15.723  6.53E-07  2.64E-05  1.42E-05  5.76E-04  0.00E+00  0.00E+00  1.49E-05  6.02E-04  5.75E-03  0.95695
    638.  15.674  5.63E-07  2.29E-05  1.43E-05  5.83E-04  0.00E+00  0.00E+00  1.49E-05  6.06E-04  5.78E-03  0.96292
    640.  15.625  8.10E-07  3.32E-05  1.41E-05  5.76E-04  0.00E+00  0.00E+00  1.49E-05  6.09E-04  5.81E-03  0.94659
    642.  15.576  5.06E-07  2.08E-05  1.43E-05  5.91E-04  0.00E+00  0.00E+00  1.49E-05  6.12E-04  5.84E-03  0.96661
    644.  15.528  9.44E-07  3.91E-05  1.39E-05  5.77E-04  0.00E+00  0.00E+00  1.49E-05  6.16E-04  5.87E-03  0.93764
    646.  15.480  9.42E-07  3.93E-05  1.39E-05  5.80E-04  0.00E+00  0.00E+00  1.48E-05  6.19E-04  5.90E-03  0.93771
    648.  15.432  9.60E-07  4.03E-05  1.39E-05  5.82E-04  0.00E+00  0.00E+00  1.48E-05  6.23E-04  5.93E-03  0.93648
    650.  15.385  1.29E-06  5.45E-05  1.35E-05  5.72E-04  0.00E+00  0.00E+00  1.48E-05  6.26E-04  5.96E-03  0.91455
    652.  15.337  1.34E-06  5.71E-05  1.35E-05  5.73E-04  0.00E+00  0.00E+00  1.48E-05  6.30E-04  5.99E-03  0.91091
    654.  15.291  9.73E-07  4.16E-05  1.38E-05  5.91E-04  0.00E+00  0.00E+00  1.48E-05  6.33E-04  6.02E-03  0.93544
    656.  15.244  9.18E-07  3.95E-05  1.39E-05  5.97E-04  0.00E+00  0.00E+00  1.48E-05  6.36E-04  6.05E-03  0.93907
    658.  15.198  1.39E-06  6.04E-05  1.34E-05  5.79E-04  0.00E+00  0.00E+00  1.48E-05  6.40E-04  6.08E-03  0.90734
    660.  15.152  1.24E-06  5.38E-05  1.35E-05  5.89E-04  0.00E+00  0.00E+00  1.48E-05  6.43E-04  6.11E-03  0.91778
    662.  15.106  7.66E-07  3.36E-05  1.40E-05  6.12E-04  0.00E+00  0.00E+00  1.47E-05  6.46E-04  6.14E-03  0.94902
    664.  15.060  7.19E-07  3.17E-05  1.40E-05  6.17E-04  0.00E+00  0.00E+00  1.47E-05  6.49E-04  6.17E-03  0.95211
    666.  15.015  2.40E-06  1.06E-04  1.23E-05  5.48E-04  0.00E+00  0.00E+00  1.47E-05  6.54E-04  6.19E-03  0.84014
    668.  14.970  1.00E-05  4.48E-04  4.85E-06  2.16E-04  0.00E+00  0.00E+00  1.49E-05  6.64E-04  6.22E-03  0.33013
    670.  14.925  2.93E-06  1.31E-04  1.18E-05  5.29E-04  0.00E+00  0.00E+00  1.47E-05  6.61E-04  6.25E-03  0.80446
    672.  14.881  9.95E-07  4.49E-05  1.37E-05  6.17E-04  0.00E+00  0.00E+00  1.47E-05  6.62E-04  6.28E-03  0.93343
    674.  14.837  1.25E-06  5.69E-05  1.34E-05  6.09E-04  0.00E+00  0.00E+00  1.47E-05  6.66E-04  6.31E-03  0.91613
    676.  14.793  1.12E-06  5.13E-05  1.35E-05  6.18E-04  0.00E+00  0.00E+00  1.46E-05  6.69E-04  6.34E-03  0.92476
    678.  14.749  1.58E-06  7.27E-05  1.30E-05  6.00E-04  0.00E+00  0.00E+00  1.46E-05  6.73E-04  6.37E-03  0.89376
    680.  14.706  1.27E-06  5.87E-05  1.33E-05  6.17E-04  0.00E+00  0.00E+00  1.46E-05  6.75E-04  6.40E-03  0.91466
    682.  14.663  1.58E-06  7.33E-05  1.30E-05  6.06E-04  0.00E+00  0.00E+00  1.46E-05  6.79E-04  6.43E-03  0.89403
    684.  14.620  1.16E-06  5.42E-05  1.34E-05  6.27E-04  0.00E+00  0.00E+00  1.46E-05  6.82E-04  6.46E-03  0.92196
    686.  14.577  1.34E-06  6.29E-05  1.32E-05  6.22E-04  0.00E+00  0.00E+00  1.46E-05  6.85E-04  6.49E-03  0.90985
    688.  14.535  1.34E-06  6.34E-05  1.32E-05  6.25E-04  0.00E+00  0.00E+00  1.45E-05  6.88E-04  6.52E-03  0.90954
    690.  14.493  1.38E-06  6.55E-05  1.31E-05  6.26E-04  0.00E+00  0.00E+00  1.45E-05  6.91E-04  6.55E-03  0.90699
    692.  14.451  7.08E-07  3.39E-05  1.38E-05  6.60E-04  0.00E+00  0.00E+00  1.45E-05  6.94E-04  6.57E-03  0.95210
    694.  14.409  8.93E-07  4.30E-05  1.36E-05  6.54E-04  0.00E+00  0.00E+00  1.45E-05  6.97E-04  6.60E-03  0.93948
    696.  14.368  5.89E-07  2.86E-05  1.39E-05  6.71E-04  0.00E+00  0.00E+00  1.44E-05  7.00E-04  6.63E-03  0.95999
    698.  14.327  7.21E-07  3.51E-05  1.37E-05  6.68E-04  0.00E+00  0.00E+00  1.44E-05  7.03E-04  6.66E-03  0.95097
1                                             RADIANCE(WATTS/CM2-STER-XXX)
0  FREQ   WAVLEN    PATH THERMAL      SURFACE EMISSION    SURFACE REFLECTED     TOTAL RADIANCE   INTEGRAL    TOTAL
  (CM-1) (MICRN)    (CM-1)   (MICRN)    (CM-1)   (MICRN)    (CM-1)   (MICRN)    (CM-1)   (MICRN)    (CM-1)   TRANS

    700.  14.286  2.85E-07  1.40E-05  1.41E-05  6.92E-04  0.00E+00  0.00E+00  1.44E-05  7.06E-04  6.69E-03  0.98061
    702.  14.245  2.95E-07  1.45E-05  1.41E-05  6.94E-04  0.00E+00  0.00E+00  1.44E-05  7.09E-04  6.72E-03  0.97988
    704.  14.205  4.09E-07  2.03E-05  1.40E-05  6.92E-04  0.00E+00  0.00E+00  1.44E-05  7.12E-04  6.75E-03  0.97209
    706.  14.164  3.37E-07  1.68E-05  1.40E-05  6.98E-04  0.00E+00  0.00E+00  1.43E-05  7.15E-04  6.78E-03  0.97699
    708.  14.124  1.96E-07  9.82E-06  1.41E-05  7.08E-04  0.00E+00  0.00E+00  1.43E-05  7.18E-04  6.81E-03  0.98659
    710.  14.085  9.49E-08  4.79E-06  1.42E-05  7.16E-04  0.00E+00  0.00E+00  1.43E-05  7.21E-04  6.83E-03  0.99349
    712.  14.045  1.01E-07  5.10E-06  1.42E-05  7.19E-04  0.00E+00  0.00E+00  1.43E-05  7.24E-04  6.86E-03  0.99309
    714.  14.006  1.34E-07  6.83E-06  1.41E-05  7.20E-04  0.00E+00  0.00E+00  1.43E-05  7.27E-04  6.89E-03  0.99079
    716.  13.966  4.95E-08  2.54E-06  1.42E-05  7.27E-04  0.00E+00  0.00E+00  1.42E-05  7.30E-04  6.92E-03  0.99659
    718.  13.928  7.76E-08  4.00E-06  1.41E-05  7.29E-04  0.00E+00  0.00E+00  1.42E-05  7.33E-04  6.95E-03  0.99465
    720.  13.889  4.11E-07  2.13E-05  1.38E-05  7.15E-04  0.00E+00  0.00E+00  1.42E-05  7.36E-04  6.98E-03  0.97162
    722.  13.850  1.41E-07  7.35E-06  1.40E-05  7.31E-04  0.00E+00  0.00E+00  1.42E-05  7.38E-04  7.00E-03  0.99025
    724.  13.812  3.03E-08  1.59E-06  1.41E-05  7.40E-04  0.00E+00  0.00E+00  1.41E-05  7.41E-04  7.03E-03  0.99790
    726.  13.774  2.97E-08  1.57E-06  1.41E-05  7.43E-04  0.00E+00  0.00E+00  1.41E-05  7.44E-04  7.06E-03  0.99794
    728.  13.736  5.55E-08  2.94E-06  1.40E-05  7.44E-04  0.00E+00  0.00E+00  1.41E-05  7.47E-04  7.09E-03  0.99614
    730.  13.699  9.57E-08  5.10E-06  1.40E-05  7.45E-04  0.00E+00  0.00E+00  1.41E-05  7.50E-04  7.12E-03  0.99333
    732.  13.661  7.20E-08  3.86E-06  1.40E-05  7.49E-04  0.00E+00  0.00E+00  1.40E-05  7.53E-04  7.15E-03  0.99498
    734.  13.624  3.82E-08  2.06E-06  1.40E-05  7.54E-04  0.00E+00  0.00E+00  1.40E-05  7.56E-04  7.17E-03  0.99733
    736.  13.587  4.49E-08  2.43E-06  1.40E-05  7.56E-04  0.00E+00  0.00E+00  1.40E-05  7.58E-04  7.20E-03  0.99686
    738.  13.550  4.33E-08  2.36E-06  1.39E-05  7.59E-04  0.00E+00  0.00E+00  1.40E-05  7.61E-04  7.23E-03  0.99696
    740.  13.514  8.65E-08  4.74E-06  1.39E-05  7.59E-04  0.00E+00  0.00E+00  1.40E-05  7.64E-04  7.26E-03  0.99392
    742.  13.477  1.24E-07  6.82E-06  1.38E-05  7.60E-04  0.00E+00  0.00E+00  1.39E-05  7.67E-04  7.29E-03  0.99129
    744.  13.441  1.22E-07  6.73E-06  1.38E-05  7.63E-04  0.00E+00  0.00E+00  1.39E-05  7.70E-04  7.31E-03  0.99143
    746.  13.405  7.59E-08  4.22E-06  1.38E-05  7.68E-04  0.00E+00  0.00E+00  1.39E-05  7.72E-04  7.34E-03  0.99464
    748.  13.369  6.24E-08  3.49E-06  1.38E-05  7.71E-04  0.00E+00  0.00E+00  1.39E-05  7.75E-04  7.37E-03  0.99558
    750.  13.333  2.52E-08  1.42E-06  1.38E-05  7.76E-04  0.00E+00  0.00E+00  1.38E-05  7.78E-04  7.40E-03  0.99821
    752.  13.298  4.62E-08  2.61E-06  1.38E-05  7.78E-04  0.00E+00  0.00E+00  1.38E-05  7.80E-04  7.42E-03  0.99672
    754.  13.263  6.03E-08  3.43E-06  1.37E-05  7.80E-04  0.00E+00  0.00E+00  1.38E-05  7.83E-04  7.45E-03  0.99571
    756.  13.228  4.97E-08  2.84E-06  1.37E-05  7.83E-04  0.00E+00  0.00E+00  1.37E-05  7.86E-04  7.48E-03  0.99646
    758.  13.193  1.58E-08  9.09E-07  1.37E-05  7.87E-04  0.00E+00  0.00E+00  1.37E-05  7.88E-04  7.51E-03  0.99887
    760.  13.158  1.67E-08  9.64E-07  1.37E-05  7.90E-04  0.00E+00  0.00E+00  1.37E-05  7.91E-04  7.53E-03  0.99880
    762.  13.123  1.48E-08  8.61E-07  1.37E-05  7.93E-04  0.00E+00  0.00E+00  1.37E-05  7.93E-04  7.56E-03  0.99894
    764.  13.089  1.32E-08  7.70E-07  1.36E-05  7.95E-04  0.00E+00  0.00E+00  1.36E-05  7.96E-04  7.59E-03  0.99905
    766.  13.055  1.50E-08  8.78E-07  1.36E-05  7.98E-04  0.00E+00  0.00E+00  1.36E-05  7.99E-04  7.62E-03  0.99892
    768.  13.021  1.87E-08  1.10E-06  1.36E-05  8.00E-04  0.00E+00  0.00E+00  1.36E-05  8.01E-04  7.64E-03  0.99865
    770.  12.987  2.87E-08  1.70E-06  1.35E-05  8.02E-04  0.00E+00  0.00E+00  1.36E-05  8.04E-04  7.67E-03  0.99793
    772.  12.953  1.24E-08  7.41E-07  1.35E-05  8.05E-04  0.00E+00  0.00E+00  1.35E-05  8.06E-04  7.70E-03  0.99910
    774.  12.920  1.29E-08  7.71E-07  1.35E-05  8.08E-04  0.00E+00  0.00E+00  1.35E-05  8.09E-04  7.72E-03  0.99907
    776.  12.887  5.08E-08  3.06E-06  1.34E-05  8.08E-04  0.00E+00  0.00E+00  1.35E-05  8.11E-04  7.75E-03  0.99630
    778.  12.853  3.63E-08  2.19E-06  1.34E-05  8.11E-04  0.00E+00  0.00E+00  1.34E-05  8.14E-04  7.78E-03  0.99736
    780.  12.821  1.81E-08  1.10E-06  1.34E-05  8.15E-04  0.00E+00  0.00E+00  1.34E-05  8.16E-04  7.80E-03  0.99867
    782.  12.788  1.19E-08  7.25E-07  1.34E-05  8.18E-04  0.00E+00  0.00E+00  1.34E-05  8.19E-04  7.83E-03  0.99913
    784.  12.755  5.93E-08  3.64E-06  1.33E-05  8.17E-04  0.00E+00  0.00E+00  1.34E-05  8.21E-04  7.86E-03  0.99565
    786.  12.723  1.31E-08  8.08E-07  1.33E-05  8.23E-04  0.00E+00  0.00E+00  1.33E-05  8.23E-04  7.88E-03  0.99904
    788.  12.690  1.09E-08  6.77E-07  1.33E-05  8.25E-04  0.00E+00  0.00E+00  1.33E-05  8.26E-04  7.91E-03  0.99920
    790.  12.658  1.08E-08  6.72E-07  1.33E-05  8.27E-04  0.00E+00  0.00E+00  1.33E-05  8.28E-04  7.94E-03  0.99920
    792.  12.626  1.43E-08  8.97E-07  1.32E-05  8.29E-04  0.00E+00  0.00E+00  1.32E-05  8.30E-04  7.96E-03  0.99894
    794.  12.594  3.54E-08  2.23E-06  1.32E-05  8.31E-04  0.00E+00  0.00E+00  1.32E-05  8.33E-04  7.99E-03  0.99737
    796.  12.563  8.08E-08  5.12E-06  1.31E-05  8.30E-04  0.00E+00  0.00E+00  1.32E-05  8.35E-04  8.02E-03  0.99399
    798.  12.531  7.09E-08  4.52E-06  1.31E-05  8.33E-04  0.00E+00  0.00E+00  1.31E-05  8.37E-04  8.04E-03  0.99471
1                                             RADIANCE(WATTS/CM2-STER-XXX)
0  FREQ   WAVLEN    PATH THERMAL      SURFACE EMISSION    SURFACE REFLECTED     TOTAL RADIANCE   INTEGRAL    TOTAL
  (CM-1) (MICRN)    (CM-1)   (MICRN)    (CM-1)   (MICRN)    (CM-1)   (MICRN)    (CM-1)   (MICRN)    (CM-1)   TRANS

    800.  12.500  6.05E-08  3.87E-06  1.31E-05  8.36E-04  0.00E+00  0.00E+00  1.31E-05  8.40E-04  8.07E-03  0.99548
    802.  12.469  1.78E-08  1.14E-06  1.31E-05  8.41E-04  0.00E+00  0.00E+00  1.31E-05  8.42E-04  8.10E-03  0.99867
    804.  12.438  3.84E-08  2.48E-06  1.30E-05  8.42E-04  0.00E+00  0.00E+00  1.31E-05  8.44E-04  8.12E-03  0.99712
    806.  12.407  1.24E-08  8.04E-07  1.30E-05  8.45E-04  0.00E+00  0.00E+00  1.30E-05  8.46E-04  8.15E-03  0.99907
    808.  12.376  2.29E-08  1.49E-06  1.30E-05  8.47E-04  0.00E+00  0.00E+00  1.30E-05  8.48E-04  8.17E-03  0.99827
    810.  12.346  9.71E-09  6.37E-07  1.30E-05  8.50E-04  0.00E+00  0.00E+00  1.30E-05  8.51E-04  8.20E-03  0.99927
    812.  12.315  9.43E-09  6.22E-07  1.29E-05  8.52E-04  0.00E+00  0.00E+00  1.29E-05  8.53E-04  8.23E-03  0.99929
    814.  12.285  2.22E-08  1.47E-06  1.29E-05  8.53E-04  0.00E+00  0.00E+00  1.29E-05  8.55E-04  8.25E-03  0.99831
    816.  12.255  1.43E-08  9.53E-07  1.29E-05  8.56E-04  0.00E+00  0.00E+00  1.29E-05  8.57E-04  8.28E-03  0.99891
    818.  12.225  8.78E-09  5.87E-07  1.28E-05  8.59E-04  0.00E+00  0.00E+00  1.28E-05  8.59E-04  8.30E-03  0.99933
    820.  12.195  8.63E-09  5.80E-07  1.28E-05  8.61E-04  0.00E+00  0.00E+00  1.28E-05  8.61E-04  8.33E-03  0.99934
    822.  12.165  8.59E-09  5.81E-07  1.28E-05  8.63E-04  0.00E+00  0.00E+00  1.28E-05  8.63E-04  8.35E-03  0.99934
    824.  12.136  1.01E-08  6.87E-07  1.27E-05  8.65E-04  0.00E+00  0.00E+00  1.27E-05  8.65E-04  8.38E-03  0.99922
    826.  12.107  1.11E-08  7.59E-07  1.27E-05  8.67E-04  0.00E+00  0.00E+00  1.27E-05  8.67E-04  8.40E-03  0.99914
    828.  12.077  1.71E-08  1.18E-06  1.27E-05  8.68E-04  0.00E+00  0.00E+00  1.27E-05  8.69E-04  8.43E-03  0.99868
    830.  12.048  8.22E-09  5.66E-07  1.26E-05  8.71E-04  0.00E+00  0.00E+00  1.26E-05  8.71E-04  8.46E-03  0.99936
    832.  12.019  8.03E-09  5.56E-07  1.26E-05  8.73E-04  0.00E+00  0.00E+00  1.26E-05  8.73E-04  8.48E-03  0.99938
    834.  11.990  7.97E-09  5.54E-07  1.26E-05  8.75E-04  0.00E+00  0.00E+00  1.26E-05  8.75E-04  8.51E-03  0.99938
    836.  11.962  9.34E-09  6.53E-07  1.25E-05  8.76E-04  0.00E+00  0.00E+00  1.26E-05  8.77E-04  8.53E-03  0.99927
    838.  11.933  8.09E-09  5.68E-07  1.25E-05  8.78E-04  0.00E+00  0.00E+00  1.25E-05  8.79E-04  8.56E-03  0.99937
    840.  11.905  1.80E-08  1.27E-06  1.25E-05  8.80E-04  0.00E+00  0.00E+00  1.25E-05  8.81E-04  8.58E-03  0.99859
    842.  11.876  8.94E-09  6.34E-07  1.24E-05  8.82E-04  0.00E+00  0.00E+00  1.25E-05  8.83E-04  8.61E-03  0.99930
    844.  11.848  7.52E-09  5.35E-07  1.24E-05  8.84E-04  0.00E+00  0.00E+00  1.24E-05  8.85E-04  8.63E-03  0.99941
    846.  11.820  7.58E-09  5.42E-07  1.24E-05  8.86E-04  0.00E+00  0.00E+00  1.24E-05  8.86E-04  8.66E-03  0.99940
    848.  11.792  7.65E-09  5.50E-07  1.23E-05  8.88E-04  0.00E+00  0.00E+00  1.24E-05  8.88E-04  8.68E-03  0.99939
    850.  11.765  1.86E-08  1.34E-06  1.23E-05  8.89E-04  0.00E+00  0.00E+00  1.23E-05  8.90E-04  8.70E-03  0.99852
    852.  11.737  3.30E-08  2.40E-06  1.23E-05  8.89E-04  0.00E+00  0.00E+00  1.23E-05  8.92E-04  8.73E-03  0.99737
    854.  11.710  1.93E-08  1.41E-06  1.22E-05  8.92E-04  0.00E+00  0.00E+00  1.23E-05  8.94E-04  8.75E-03  0.99846
    856.  11.682  1.23E-08  9.04E-07  1.22E-05  8.94E-04  0.00E+00  0.00E+00  1.22E-05  8.95E-04  8.78E-03  0.99901
    858.  11.655  7.58E-09  5.58E-07  1.22E-05  8.96E-04  0.00E+00  0.00E+00  1.22E-05  8.97E-04  8.80E-03  0.99939
    860.  11.628  7.92E-09  5.86E-07  1.21E-05  8.98E-04  0.00E+00  0.00E+00  1.22E-05  8.99E-04  8.83E-03  0.99936
    862.  11.601  6.79E-09  5.04E-07  1.21E-05  9.00E-04  0.00E+00  0.00E+00  1.21E-05  9.00E-04  8.85E-03  0.99945
    864.  11.574  9.77E-09  7.29E-07  1.21E-05  9.01E-04  0.00E+00  0.00E+00  1.21E-05  9.02E-04  8.88E-03  0.99921
    866.  11.547  9.92E-09  7.44E-07  1.20E-05  9.03E-04  0.00E+00  0.00E+00  1.20E-05  9.04E-04  8.90E-03  0.99919
    868.  11.521  6.58E-09  4.96E-07  1.20E-05  9.05E-04  0.00E+00  0.00E+00  1.20E-05  9.05E-04  8.92E-03  0.99946
    870.  11.494  1.03E-08  7.78E-07  1.20E-05  9.06E-04  0.00E+00  0.00E+00  1.20E-05  9.07E-04  8.95E-03  0.99916
    872.  11.468  1.05E-08  7.96E-07  1.19E-05  9.08E-04  0.00E+00  0.00E+00  1.19E-05  9.08E-04  8.97E-03  0.99914
    874.  11.442  6.40E-09  4.89E-07  1.19E-05  9.09E-04  0.00E+00  0.00E+00  1.19E-05  9.10E-04  9.00E-03  0.99947
    876.  11.416  6.44E-09  4.94E-07  1.19E-05  9.11E-04  0.00E+00  0.00E+00  1.19E-05  9.12E-04  9.02E-03  0.99947
    878.  11.390  8.45E-09  6.51E-07  1.18E-05  9.12E-04  0.00E+00  0.00E+00  1.18E-05  9.13E-04  9.04E-03  0.99930
    880.  11.364  8.67E-09  6.72E-07  1.18E-05  9.14E-04  0.00E+00  0.00E+00  1.18E-05  9.15E-04  9.07E-03  0.99928
    882.  11.338  7.21E-09  5.61E-07  1.18E-05  9.15E-04  0.00E+00  0.00E+00  1.18E-05  9.16E-04  9.09E-03  0.99940
    884.  11.312  1.09E-08  8.52E-07  1.17E-05  9.17E-04  0.00E+00  0.00E+00  1.17E-05  9.17E-04  9.11E-03  0.99909
    886.  11.287  9.51E-09  7.47E-07  1.17E-05  9.18E-04  0.00E+00  0.00E+00  1.17E-05  9.19E-04  9.14E-03  0.99920
    888.  11.261  1.09E-08  8.63E-07  1.17E-05  9.19E-04  0.00E+00  0.00E+00  1.17E-05  9.20E-04  9.16E-03  0.99908
    890.  11.236  8.53E-09  6.76E-07  1.16E-05  9.21E-04  0.00E+00  0.00E+00  1.16E-05  9.22E-04  9.18E-03  0.99928
    892.  11.211  6.40E-09  5.09E-07  1.16E-05  9.23E-04  0.00E+00  0.00E+00  1.16E-05  9.23E-04  9.21E-03  0.99946
    894.  11.186  5.77E-09  4.61E-07  1.16E-05  9.24E-04  0.00E+00  0.00E+00  1.16E-05  9.24E-04  9.23E-03  0.99951
    896.  11.161  5.87E-09  4.71E-07  1.15E-05  9.25E-04  0.00E+00  0.00E+00  1.15E-05  9.26E-04  9.25E-03  0.99950
    898.  11.136  6.28E-09  5.07E-07  1.15E-05  9.27E-04  0.00E+00  0.00E+00  1.15E-05  9.27E-04  9.28E-03  0.99946
1                                             RADIANCE(WATTS/CM2-STER-XXX)
0  FREQ   WAVLEN    PATH THERMAL      SURFACE EMISSION    SURFACE REFLECTED     TOTAL RADIANCE   INTEGRAL    TOTAL
  (CM-1) (MICRN)    (CM-1)   (MICRN)    (CM-1)   (MICRN)    (CM-1)   (MICRN)    (CM-1)   (MICRN)    (CM-1)   TRANS

    900.  11.111  5.58E-09  4.52E-07  1.15E-05  9.28E-04  0.00E+00  0.00E+00  1.15E-05  9.28E-04  9.30E-03  0.99952
    902.  11.086  5.59E-09  4.54E-07  1.14E-05  9.29E-04  0.00E+00  0.00E+00  1.14E-05  9.30E-04  9.32E-03  0.99952
    904.  11.062  5.62E-09  4.60E-07  1.14E-05  9.30E-04  0.00E+00  0.00E+00  1.14E-05  9.31E-04  9.34E-03  0.99952
    906.  11.038  7.94E-09  6.52E-07  1.13E-05  9.31E-04  0.00E+00  0.00E+00  1.14E-05  9.32E-04  9.37E-03  0.99931
    908.  11.013  1.20E-08  9.93E-07  1.13E-05  9.32E-04  0.00E+00  0.00E+00  1.13E-05  9.33E-04  9.39E-03  0.99896
    910.  10.989  1.19E-08  9.84E-07  1.13E-05  9.34E-04  0.00E+00  0.00E+00  1.13E-05  9.34E-04  9.41E-03  0.99897
    912.  10.965  5.51E-09  4.58E-07  1.12E-05  9.35E-04  0.00E+00  0.00E+00  1.12E-05  9.36E-04  9.43E-03  0.99952
    914.  10.941  6.34E-09  5.29E-07  1.12E-05  9.36E-04  0.00E+00  0.00E+00  1.12E-05  9.37E-04  9.46E-03  0.99945
    916.  10.917  5.29E-09  4.44E-07  1.12E-05  9.37E-04  0.00E+00  0.00E+00  1.12E-05  9.38E-04  9.48E-03  0.99954
    918.  10.893  6.28E-09  5.29E-07  1.11E-05  9.39E-04  0.00E+00  0.00E+00  1.11E-05  9.39E-04  9.50E-03  0.99945
    920.  10.870  5.62E-09  4.76E-07  1.11E-05  9.40E-04  0.00E+00  0.00E+00  1.11E-05  9.40E-04  9.52E-03  0.99950
    922.  10.846  1.19E-08  1.01E-06  1.11E-05  9.40E-04  0.00E+00  0.00E+00  1.11E-05  9.41E-04  9.55E-03  0.99895
    924.  10.823  7.31E-09  6.24E-07  1.10E-05  9.42E-04  0.00E+00  0.00E+00  1.10E-05  9.42E-04  9.57E-03  0.99935
    926.  10.799  6.99E-09  5.99E-07  1.10E-05  9.43E-04  0.00E+00  0.00E+00  1.10E-05  9.43E-04  9.59E-03  0.99938
    928.  10.776  5.32E-09  4.58E-07  1.10E-05  9.44E-04  0.00E+00  0.00E+00  1.10E-05  9.44E-04  9.61E-03  0.99952
    930.  10.753  5.26E-09  4.55E-07  1.09E-05  9.45E-04  0.00E+00  0.00E+00  1.09E-05  9.45E-04  9.63E-03  0.99953
    932.  10.730  5.01E-09  4.35E-07  1.09E-05  9.46E-04  0.00E+00  0.00E+00  1.09E-05  9.46E-04  9.66E-03  0.99955
    934.  10.707  4.88E-09  4.26E-07  1.09E-05  9.47E-04  0.00E+00  0.00E+00  1.09E-05  9.47E-04  9.68E-03  0.99956
    936.  10.684  4.90E-09  4.30E-07  1.08E-05  9.48E-04  0.00E+00  0.00E+00  1.08E-05  9.48E-04  9.70E-03  0.99956
    938.  10.661  4.87E-09  4.29E-07  1.08E-05  9.49E-04  0.00E+00  0.00E+00  1.08E-05  9.49E-04  9.72E-03  0.99956
    940.  10.638  5.09E-09  4.49E-07  1.07E-05  9.50E-04  0.00E+00  0.00E+00  1.08E-05  9.50E-04  9.74E-03  0.99954
    942.  10.616  5.09E-09  4.52E-07  1.07E-05  9.50E-04  0.00E+00  0.00E+00  1.07E-05  9.51E-04  9.76E-03  0.99953
    944.  10.593  5.15E-09  4.59E-07  1.07E-05  9.51E-04  0.00E+00  0.00E+00  1.07E-05  9.52E-04  9.79E-03  0.99953
    946.  10.571  5.11E-09  4.57E-07  1.06E-05  9.52E-04  0.00E+00  0.00E+00  1.06E-05  9.53E-04  9.81E-03  0.99953
    948.  10.549  1.17E-08  1.05E-06  1.06E-05  9.52E-04  0.00E+00  0.00E+00  1.06E-05  9.53E-04  9.83E-03  0.99892
    950.  10.526  4.65E-09  4.20E-07  1.06E-05  9.54E-04  0.00E+00  0.00E+00  1.06E-05  9.54E-04  9.85E-03  0.99957
    952.  10.504  5.36E-09  4.86E-07  1.05E-05  9.54E-04  0.00E+00  0.00E+00  1.05E-05  9.55E-04  9.87E-03  0.99950
    954.  10.482  6.16E-09  5.61E-07  1.05E-05  9.55E-04  0.00E+00  0.00E+00  1.05E-05  9.56E-04  9.89E-03  0.99943
    956.  10.460  5.68E-09  5.19E-07  1.05E-05  9.56E-04  0.00E+00  0.00E+00  1.05E-05  9.56E-04  9.91E-03  0.99947
    958.  10.438  4.54E-09  4.16E-07  1.04E-05  9.57E-04  0.00E+00  0.00E+00  1.04E-05  9.57E-04  9.93E-03  0.99957
    960.  10.417  4.97E-09  4.58E-07  1.04E-05  9.57E-04  0.00E+00  0.00E+00  1.04E-05  9.58E-04  9.95E-03  0.99953
    962.  10.395  4.30E-09  3.98E-07  1.04E-05  9.58E-04  0.00E+00  0.00E+00  1.04E-05  9.58E-04  9.97E-03  0.99959
    964.  10.373  4.12E-09  3.82E-07  1.03E-05  9.59E-04  0.00E+00  0.00E+00  1.03E-05  9.59E-04  9.99E-03  0.99961
    966.  10.352  4.95E-09  4.62E-07  1.03E-05  9.59E-04  0.00E+00  0.00E+00  1.03E-05  9.60E-04  1.00E-02  0.99953
    968.  10.331  4.58E-09  4.30E-07  1.02E-05  9.60E-04  0.00E+00  0.00E+00  1.02E-05  9.60E-04  1.00E-02  0.99956
    970.  10.309  4.79E-09  4.51E-07  1.02E-05  9.61E-04  0.00E+00  0.00E+00  1.02E-05  9.61E-04  1.01E-02  0.99954
    972.  10.288  6.12E-09  5.78E-07  1.02E-05  9.61E-04  0.00E+00  0.00E+00  1.02E-05  9.62E-04  1.01E-02  0.99941
    974.  10.267  5.69E-09  5.40E-07  1.01E-05  9.62E-04  0.00E+00  0.00E+00  1.01E-05  9.62E-04  1.01E-02  0.99945
    976.  10.246  6.44E-09  6.13E-07  1.01E-05  9.62E-04  0.00E+00  0.00E+00  1.01E-05  9.63E-04  1.01E-02  0.99938
    978.  10.225  4.45E-09  4.26E-07  1.01E-05  9.63E-04  0.00E+00  0.00E+00  1.01E-05  9.63E-04  1.01E-02  0.99957
    980.  10.204  3.94E-09  3.78E-07  1.00E-05  9.63E-04  0.00E+00  0.00E+00  1.00E-05  9.64E-04  1.02E-02  0.99962
    982.  10.183  3.94E-09  3.80E-07  9.99E-06  9.64E-04  0.00E+00  0.00E+00  1.00E-05  9.64E-04  1.02E-02  0.99961
    984.  10.163  4.12E-09  3.99E-07  9.96E-06  9.64E-04  0.00E+00  0.00E+00  9.96E-06  9.65E-04  1.02E-02  0.99959
    986.  10.142  3.62E-09  3.52E-07  9.92E-06  9.65E-04  0.00E+00  0.00E+00  9.93E-06  9.65E-04  1.02E-02  0.99964
    988.  10.121  3.60E-09  3.51E-07  9.89E-06  9.65E-04  0.00E+00  0.00E+00  9.89E-06  9.66E-04  1.02E-02  0.99964
    990.  10.101  3.68E-09  3.61E-07  9.85E-06  9.66E-04  0.00E+00  0.00E+00  9.86E-06  9.66E-04  1.03E-02  0.99963
    992.  10.081  3.50E-09  3.44E-07  9.82E-06  9.66E-04  0.00E+00  0.00E+00  9.82E-06  9.66E-04  1.03E-02  0.99965
    994.  10.060  3.54E-09  3.50E-07  9.78E-06  9.66E-04  0.00E+00  0.00E+00  9.78E-06  9.67E-04  1.03E-02  0.99965
    996.  10.040  3.46E-09  3.43E-07  9.75E-06  9.67E-04  0.00E+00  0.00E+00  9.75E-06  9.67E-04  1.03E-02  0.99965
    998.  10.020  3.88E-09  3.86E-07  9.71E-06  9.67E-04  0.00E+00  0.00E+00  9.71E-06  9.67E-04  1.03E-02  0.99961
1                                             RADIANCE(WATTS/CM2-STER-XXX)
0  FREQ   WAVLEN    PATH THERMAL      SURFACE EMISSION    SURFACE REFLECTED     TOTAL RADIANCE   INTEGRAL    TOTAL
  (CM-1) (MICRN)    (CM-1)   (MICRN)    (CM-1)   (MICRN)    (CM-1)   (MICRN)    (CM-1)   (MICRN)    (CM-1)   TRANS

   1000.  10.000  4.82E-09  4.82E-07  9.67E-06  9.67E-04  0.00E+00  0.00E+00  9.68E-06  9.68E-04  1.04E-02  0.99951
   1002.   9.980  3.46E-09  3.47E-07  9.64E-06  9.68E-04  0.00E+00  0.00E+00  9.64E-06  9.68E-04  1.04E-02  0.99965
   1004.   9.960  4.09E-09  4.12E-07  9.60E-06  9.68E-04  0.00E+00  0.00E+00  9.61E-06  9.68E-04  1.04E-02  0.99958
   1006.   9.940  3.43E-09  3.48E-07  9.57E-06  9.68E-04  0.00E+00  0.00E+00  9.57E-06  9.69E-04  1.04E-02  0.99965
   1008.   9.921  3.44E-09  3.50E-07  9.53E-06  9.68E-04  0.00E+00  0.00E+00  9.54E-06  9.69E-04  1.04E-02  0.99965
   1010.   9.901  6.23E-09  6.35E-07  9.49E-06  9.68E-04  0.00E+00  0.00E+00  9.50E-06  9.69E-04  1.04E-02  0.99936
   1012.   9.881  4.41E-09  4.52E-07  9.46E-06  9.69E-04  0.00E+00  0.00E+00  9.46E-06  9.69E-04  1.05E-02  0.99954
   1014.   9.862  8.67E-09  8.92E-07  9.42E-06  9.69E-04  0.00E+00  0.00E+00  9.43E-06  9.69E-04  1.05E-02  0.99910
   1016.   9.843  3.87E-09  3.99E-07  9.39E-06  9.69E-04  0.00E+00  0.00E+00  9.39E-06  9.70E-04  1.05E-02  0.99960
   1018.   9.823  5.82E-09  6.03E-07  9.35E-06  9.69E-04  0.00E+00  0.00E+00  9.36E-06  9.70E-04  1.05E-02  0.99939
   1020.   9.804  3.42E-09  3.56E-07  9.32E-06  9.70E-04  0.00E+00  0.00E+00  9.32E-06  9.70E-04  1.05E-02  0.99964
   1022.   9.785  3.40E-09  3.55E-07  9.28E-06  9.70E-04  0.00E+00  0.00E+00  9.29E-06  9.70E-04  1.06E-02  0.99964
   1024.   9.766  3.18E-09  3.33E-07  9.25E-06  9.70E-04  0.00E+00  0.00E+00  9.25E-06  9.70E-04  1.06E-02  0.99966
   1026.   9.747  3.18E-09  3.35E-07  9.21E-06  9.70E-04  0.00E+00  0.00E+00  9.22E-06  9.70E-04  1.06E-02  0.99966
   1028.   9.728  6.41E-09  6.78E-07  9.18E-06  9.70E-04  0.00E+00  0.00E+00  9.18E-06  9.70E-04  1.06E-02  0.99932
   1030.   9.709  5.58E-09  5.92E-07  9.14E-06  9.70E-04  0.00E+00  0.00E+00  9.15E-06  9.70E-04  1.06E-02  0.99940
   1032.   9.690  3.83E-09  4.07E-07  9.11E-06  9.70E-04  0.00E+00  0.00E+00  9.11E-06  9.70E-04  1.07E-02  0.99959
   1034.   9.671  3.22E-09  3.44E-07  9.07E-06  9.70E-04  0.00E+00  0.00E+00  9.08E-06  9.70E-04  1.07E-02  0.99965
   1036.   9.653  3.10E-09  3.32E-07  9.04E-06  9.70E-04  0.00E+00  0.00E+00  9.04E-06  9.70E-04  1.07E-02  0.99966
   1038.   9.634  3.88E-09  4.18E-07  9.00E-06  9.70E-04  0.00E+00  0.00E+00  9.01E-06  9.70E-04  1.07E-02  0.99958
   1040.   9.615  4.07E-09  4.40E-07  8.97E-06  9.70E-04  0.00E+00  0.00E+00  8.97E-06  9.70E-04  1.07E-02  0.99956
   1042.   9.597  3.47E-09  3.76E-07  8.93E-06  9.70E-04  0.00E+00  0.00E+00  8.94E-06  9.70E-04  1.07E-02  0.99962
   1044.   9.579  3.38E-09  3.68E-07  8.90E-06  9.70E-04  0.00E+00  0.00E+00  8.90E-06  9.70E-04  1.08E-02  0.99963
   1046.   9.560  2.98E-09  3.26E-07  8.86E-06  9.70E-04  0.00E+00  0.00E+00  8.87E-06  9.70E-04  1.08E-02  0.99967
   1048.   9.542  3.63E-09  3.98E-07  8.83E-06  9.70E-04  0.00E+00  0.00E+00  8.83E-06  9.70E-04  1.08E-02  0.99960
   1050.   9.524  4.69E-09  5.17E-07  8.79E-06  9.69E-04  0.00E+00  0.00E+00  8.80E-06  9.70E-04  1.08E-02  0.99948
   1052.   9.506  3.88E-09  4.30E-07  8.76E-06  9.69E-04  0.00E+00  0.00E+00  8.76E-06  9.70E-04  1.08E-02  0.99957
   1054.   9.488  3.16E-09  3.51E-07  8.72E-06  9.69E-04  0.00E+00  0.00E+00  8.73E-06  9.70E-04  1.08E-02  0.99964
   1056.   9.470  4.24E-09  4.73E-07  8.69E-06  9.69E-04  0.00E+00  0.00E+00  8.69E-06  9.69E-04  1.09E-02  0.99952
   1058.   9.452  3.34E-09  3.74E-07  8.65E-06  9.69E-04  0.00E+00  0.00E+00  8.66E-06  9.69E-04  1.09E-02  0.99962
   1060.   9.434  5.27E-09  5.92E-07  8.62E-06  9.68E-04  0.00E+00  0.00E+00  8.62E-06  9.69E-04  1.09E-02  0.99940
   1062.   9.416  3.73E-09  4.21E-07  8.59E-06  9.68E-04  0.00E+00  0.00E+00  8.59E-06  9.69E-04  1.09E-02  0.99957
   1064.   9.398  3.58E-09  4.05E-07  8.55E-06  9.68E-04  0.00E+00  0.00E+00  8.55E-06  9.68E-04  1.09E-02  0.99959
   1066.   9.381  1.82E-08  2.07E-06  8.50E-06  9.66E-04  0.00E+00  0.00E+00  8.52E-06  9.68E-04  1.10E-02  0.99791
   1068.   9.363  3.24E-09  3.70E-07  8.48E-06  9.68E-04  0.00E+00  0.00E+00  8.49E-06  9.68E-04  1.10E-02  0.99963
   1070.   9.346  2.77E-09  3.17E-07  8.45E-06  9.67E-04  0.00E+00  0.00E+00  8.45E-06  9.68E-04  1.10E-02  0.99968
   1072.   9.328  3.39E-09  3.89E-07  8.41E-06  9.67E-04  0.00E+00  0.00E+00  8.42E-06  9.67E-04  1.10E-02  0.99961
   1074.   9.311  8.63E-09  9.96E-07  8.37E-06  9.66E-04  0.00E+00  0.00E+00  8.38E-06  9.67E-04  1.10E-02  0.99899
   1076.   9.294  3.57E-09  4.14E-07  8.35E-06  9.66E-04  0.00E+00  0.00E+00  8.35E-06  9.67E-04  1.10E-02  0.99958
   1078.   9.276  2.70E-09  3.14E-07  8.31E-06  9.66E-04  0.00E+00  0.00E+00  8.32E-06  9.66E-04  1.11E-02  0.99968
   1080.   9.259  2.87E-09  3.35E-07  8.28E-06  9.66E-04  0.00E+00  0.00E+00  8.28E-06  9.66E-04  1.11E-02  0.99966
   1082.   9.242  2.82E-09  3.31E-07  8.24E-06  9.65E-04  0.00E+00  0.00E+00  8.25E-06  9.66E-04  1.11E-02  0.99966
   1084.   9.225  2.93E-09  3.44E-07  8.21E-06  9.65E-04  0.00E+00  0.00E+00  8.21E-06  9.65E-04  1.11E-02  0.99965
   1086.   9.208  2.99E-09  3.53E-07  8.18E-06  9.64E-04  0.00E+00  0.00E+00  8.18E-06  9.65E-04  1.11E-02  0.99964
   1088.   9.191  2.80E-09  3.32E-07  8.14E-06  9.64E-04  0.00E+00  0.00E+00  8.15E-06  9.64E-04  1.11E-02  0.99966
   1090.   9.174  6.14E-09  7.29E-07  8.11E-06  9.63E-04  0.00E+00  0.00E+00  8.11E-06  9.64E-04  1.12E-02  0.99926
   1092.   9.158  6.50E-09  7.75E-07  8.07E-06  9.63E-04  0.00E+00  0.00E+00  8.08E-06  9.63E-04  1.12E-02  0.99921
   1094.   9.141  2.47E-09  2.95E-07  8.04E-06  9.63E-04  0.00E+00  0.00E+00  8.04E-06  9.63E-04  1.12E-02  0.99970
   1096.   9.124  2.41E-09  2.89E-07  8.01E-06  9.62E-04  0.00E+00  0.00E+00  8.01E-06  9.62E-04  1.12E-02  0.99971
   1098.   9.107  2.67E-09  3.22E-07  7.98E-06  9.62E-04  0.00E+00  0.00E+00  7.98E-06  9.62E-04  1.12E-02  0.99967
1                                             RADIANCE(WATTS/CM2-STER-XXX)
0  FREQ   WAVLEN    PATH THERMAL      SURFACE EMISSION    SURFACE REFLECTED     TOTAL RADIANCE   INTEGRAL    TOTAL
  (CM-1) (MICRN)    (CM-1)   (MICRN)    (CM-1)   (MICRN)    (CM-1)   (MICRN)    (CM-1)   (MICRN)    (CM-1)   TRANS

   1100.   9.091  1.07E-08  1.30E-06  7.93E-06  9.60E-04  0.00E+00  0.00E+00  7.94E-06  9.61E-04  1.12E-02  0.99867
   1102.   9.074  5.59E-09  6.78E-07  7.91E-06  9.60E-04  0.00E+00  0.00E+00  7.91E-06  9.61E-04  1.12E-02  0.99931
   1104.   9.058  2.54E-09  3.09E-07  7.88E-06  9.60E-04  0.00E+00  0.00E+00  7.88E-06  9.60E-04  1.13E-02  0.99968
   1106.   9.042  1.11E-08  1.36E-06  7.83E-06  9.58E-04  0.00E+00  0.00E+00  7.85E-06  9.60E-04  1.13E-02  0.99861
   1108.   9.025  1.04E-08  1.28E-06  7.80E-06  9.58E-04  0.00E+00  0.00E+00  7.81E-06  9.59E-04  1.13E-02  0.99870
   1110.   9.009  2.93E-09  3.61E-07  7.78E-06  9.58E-04  0.00E+00  0.00E+00  7.78E-06  9.58E-04  1.13E-02  0.99963
   1112.   8.993  1.09E-08  1.35E-06  7.74E-06  9.56E-04  0.00E+00  0.00E+00  7.75E-06  9.58E-04  1.13E-02  0.99862
   1114.   8.977  2.45E-09  3.04E-07  7.71E-06  9.57E-04  0.00E+00  0.00E+00  7.71E-06  9.57E-04  1.13E-02  0.99969
   1116.   8.961  2.40E-09  2.99E-07  7.68E-06  9.56E-04  0.00E+00  0.00E+00  7.68E-06  9.57E-04  1.14E-02  0.99969
   1118.   8.945  3.32E-09  4.15E-07  7.64E-06  9.55E-04  0.00E+00  0.00E+00  7.65E-06  9.56E-04  1.14E-02  0.99957
   1120.   8.929  1.05E-08  1.32E-06  7.60E-06  9.54E-04  0.00E+00  0.00E+00  7.61E-06  9.55E-04  1.14E-02  0.99864
   1122.   8.913  1.09E-08  1.37E-06  7.57E-06  9.53E-04  0.00E+00  0.00E+00  7.58E-06  9.55E-04  1.14E-02  0.99860
   1124.   8.897  2.45E-09  3.10E-07  7.55E-06  9.53E-04  0.00E+00  0.00E+00  7.55E-06  9.54E-04  1.14E-02  0.99968
   1126.   8.881  2.27E-09  2.87E-07  7.51E-06  9.53E-04  0.00E+00  0.00E+00  7.52E-06  9.53E-04  1.14E-02  0.99970
   1128.   8.865  2.20E-09  2.80E-07  7.48E-06  9.52E-04  0.00E+00  0.00E+00  7.48E-06  9.52E-04  1.14E-02  0.99971
   1130.   8.850  2.36E-09  3.01E-07  7.45E-06  9.51E-04  0.00E+00  0.00E+00  7.45E-06  9.52E-04  1.15E-02  0.99969
   1132.   8.834  2.44E-09  3.13E-07  7.42E-06  9.51E-04  0.00E+00  0.00E+00  7.42E-06  9.51E-04  1.15E-02  0.99968
   1134.   8.818  4.90E-09  6.30E-07  7.38E-06  9.49E-04  0.00E+00  0.00E+00  7.39E-06  9.50E-04  1.15E-02  0.99935
   1136.   8.803  5.16E-08  6.66E-06  7.31E-06  9.43E-04  0.00E+00  0.00E+00  7.36E-06  9.49E-04  1.15E-02  0.99312
   1138.   8.787  9.19E-09  1.19E-06  7.31E-06  9.47E-04  0.00E+00  0.00E+00  7.32E-06  9.48E-04  1.15E-02  0.99877
   1140.   8.772  2.44E-09  3.18E-07  7.29E-06  9.47E-04  0.00E+00  0.00E+00  7.29E-06  9.48E-04  1.15E-02  0.99967
   1142.   8.757  2.91E-09  3.80E-07  7.26E-06  9.46E-04  0.00E+00  0.00E+00  7.26E-06  9.47E-04  1.16E-02  0.99961
   1144.   8.741  2.22E-09  2.91E-07  7.23E-06  9.46E-04  0.00E+00  0.00E+00  7.23E-06  9.46E-04  1.16E-02  0.99970
   1146.   8.726  2.22E-09  2.92E-07  7.19E-06  9.45E-04  0.00E+00  0.00E+00  7.20E-06  9.45E-04  1.16E-02  0.99970
   1148.   8.711  8.57E-09  1.13E-06  7.16E-06  9.43E-04  0.00E+00  0.00E+00  7.16E-06  9.44E-04  1.16E-02  0.99883
   1150.   8.696  9.57E-09  1.27E-06  7.12E-06  9.42E-04  0.00E+00  0.00E+00  7.13E-06  9.43E-04  1.16E-02  0.99869
   1152.   8.681  1.42E-08  1.88E-06  7.09E-06  9.41E-04  0.00E+00  0.00E+00  7.10E-06  9.42E-04  1.16E-02  0.99805
   1154.   8.666  2.87E-09  3.83E-07  7.07E-06  9.41E-04  0.00E+00  0.00E+00  7.07E-06  9.42E-04  1.16E-02  0.99960
   1156.   8.651  2.17E-09  2.91E-07  7.04E-06  9.40E-04  0.00E+00  0.00E+00  7.04E-06  9.41E-04  1.17E-02  0.99970
   1158.   8.636  2.07E-09  2.78E-07  7.01E-06  9.39E-04  0.00E+00  0.00E+00  7.01E-06  9.40E-04  1.17E-02  0.99971
   1160.   8.621  2.10E-09  2.82E-07  6.97E-06  9.38E-04  0.00E+00  0.00E+00  6.98E-06  9.39E-04  1.17E-02  0.99971
   1162.   8.606  2.19E-09  2.96E-07  6.94E-06  9.37E-04  0.00E+00  0.00E+00  6.95E-06  9.38E-04  1.17E-02  0.99969
   1164.   8.591  8.51E-09  1.15E-06  6.91E-06  9.36E-04  0.00E+00  0.00E+00  6.91E-06  9.37E-04  1.17E-02  0.99879
   1166.   8.576  1.21E-08  1.65E-06  6.87E-06  9.34E-04  0.00E+00  0.00E+00  6.88E-06  9.36E-04  1.17E-02  0.99827
   1168.   8.562  2.36E-09  3.22E-07  6.85E-06  9.34E-04  0.00E+00  0.00E+00  6.85E-06  9.35E-04  1.17E-02  0.99966
   1170.   8.547  2.60E-09  3.56E-07  6.82E-06  9.33E-04  0.00E+00  0.00E+00  6.82E-06  9.34E-04  1.17E-02  0.99963
   1172.   8.532  3.51E-09  4.82E-07  6.79E-06  9.32E-04  0.00E+00  0.00E+00  6.79E-06  9.33E-04  1.18E-02  0.99949
   1174.   8.518  6.06E-08  8.35E-06  6.70E-06  9.24E-04  0.00E+00  0.00E+00  6.76E-06  9.32E-04  1.18E-02  0.99120
   1176.   8.503  4.54E-08  6.28E-06  6.69E-06  9.25E-04  0.00E+00  0.00E+00  6.73E-06  9.31E-04  1.18E-02  0.99340
   1178.   8.489  2.90E-09  4.03E-07  6.70E-06  9.29E-04  0.00E+00  0.00E+00  6.70E-06  9.30E-04  1.18E-02  0.99958
   1180.   8.475  3.01E-09  4.20E-07  6.67E-06  9.28E-04  0.00E+00  0.00E+00  6.67E-06  9.29E-04  1.18E-02  0.99956
   1182.   8.460  2.62E-09  3.65E-07  6.64E-06  9.27E-04  0.00E+00  0.00E+00  6.64E-06  9.27E-04  1.18E-02  0.99961
   1184.   8.446  3.24E-09  4.55E-07  6.60E-06  9.26E-04  0.00E+00  0.00E+00  6.61E-06  9.26E-04  1.18E-02  0.99952
   1186.   8.432  3.66E-08  5.14E-06  6.54E-06  9.20E-04  0.00E+00  0.00E+00  6.58E-06  9.25E-04  1.19E-02  0.99454
   1188.   8.418  4.12E-08  5.82E-06  6.51E-06  9.18E-04  0.00E+00  0.00E+00  6.55E-06  9.24E-04  1.19E-02  0.99384
   1190.   8.403  3.25E-09  4.60E-07  6.51E-06  9.23E-04  0.00E+00  0.00E+00  6.52E-06  9.23E-04  1.19E-02  0.99951
   1192.   8.389  2.67E-09  3.80E-07  6.49E-06  9.21E-04  0.00E+00  0.00E+00  6.49E-06  9.22E-04  1.19E-02  0.99960
   1194.   8.375  3.01E-09  4.29E-07  6.46E-06  9.20E-04  0.00E+00  0.00E+00  6.46E-06  9.21E-04  1.19E-02  0.99954
   1196.   8.361  3.01E-09  4.30E-07  6.43E-06  9.19E-04  0.00E+00  0.00E+00  6.43E-06  9.20E-04  1.19E-02  0.99954
   1198.   8.347  3.80E-08  5.45E-06  6.36E-06  9.13E-04  0.00E+00  0.00E+00  6.40E-06  9.18E-04  1.19E-02  0.99418
1                                             RADIANCE(WATTS/CM2-STER-XXX)
0  FREQ   WAVLEN    PATH THERMAL      SURFACE EMISSION    SURFACE REFLECTED     TOTAL RADIANCE   INTEGRAL    TOTAL
  (CM-1) (MICRN)    (CM-1)   (MICRN)    (CM-1)   (MICRN)    (CM-1)   (MICRN)    (CM-1)   (MICRN)    (CM-1)   TRANS

   1200.   8.333  4.42E-09  6.37E-07  6.37E-06  9.17E-04  0.00E+00  0.00E+00  6.37E-06  9.17E-04  1.19E-02  0.99932
   1202.   8.319  2.15E-09  3.11E-07  6.34E-06  9.16E-04  0.00E+00  0.00E+00  6.34E-06  9.16E-04  1.20E-02  0.99967
   1204.   8.306  1.91E-09  2.77E-07  6.31E-06  9.15E-04  0.00E+00  0.00E+00  6.31E-06  9.15E-04  1.20E-02  0.99970
   1206.   8.292  3.84E-09  5.58E-07  6.28E-06  9.13E-04  0.00E+00  0.00E+00  6.28E-06  9.14E-04  1.20E-02  0.99940
   1208.   8.278  2.82E-09  4.11E-07  6.25E-06  9.12E-04  0.00E+00  0.00E+00  6.25E-06  9.12E-04  1.20E-02  0.99956
   1210.   8.264  1.16E-08  1.69E-06  6.21E-06  9.09E-04  0.00E+00  0.00E+00  6.22E-06  9.11E-04  1.20E-02  0.99818
   1212.   8.251  9.13E-08  1.34E-05  6.10E-06  8.97E-04  0.00E+00  0.00E+00  6.20E-06  9.10E-04  1.20E-02  0.98556
   1214.   8.237  9.38E-09  1.38E-06  6.16E-06  9.07E-04  0.00E+00  0.00E+00  6.17E-06  9.09E-04  1.20E-02  0.99851
   1216.   8.224  3.87E-09  5.72E-07  6.13E-06  9.07E-04  0.00E+00  0.00E+00  6.14E-06  9.07E-04  1.20E-02  0.99938
   1218.   8.210  2.03E-08  3.02E-06  6.09E-06  9.03E-04  0.00E+00  0.00E+00  6.11E-06  9.06E-04  1.21E-02  0.99673
   1220.   8.197  2.14E-08  3.18E-06  6.06E-06  9.02E-04  0.00E+00  0.00E+00  6.08E-06  9.05E-04  1.21E-02  0.99656
   1222.   8.183  5.16E-09  7.71E-07  6.05E-06  9.03E-04  0.00E+00  0.00E+00  6.05E-06  9.03E-04  1.21E-02  0.99916
   1224.   8.170  4.18E-08  6.26E-06  5.98E-06  8.96E-04  0.00E+00  0.00E+00  6.02E-06  9.02E-04  1.21E-02  0.99318
   1226.   8.157  6.03E-08  9.06E-06  5.93E-06  8.92E-04  0.00E+00  0.00E+00  5.99E-06  9.01E-04  1.21E-02  0.99015
   1228.   8.143  3.95E-09  5.96E-07  5.96E-06  8.99E-04  0.00E+00  0.00E+00  5.96E-06  9.00E-04  1.21E-02  0.99935
   1230.   8.130  3.06E-09  4.63E-07  5.93E-06  8.98E-04  0.00E+00  0.00E+00  5.94E-06  8.98E-04  1.21E-02  0.99950
   1232.   8.117  2.20E-09  3.33E-07  5.91E-06  8.96E-04  0.00E+00  0.00E+00  5.91E-06  8.97E-04  1.21E-02  0.99964
   1234.   8.104  2.26E-09  3.44E-07  5.88E-06  8.95E-04  0.00E+00  0.00E+00  5.88E-06  8.95E-04  1.22E-02  0.99962
   1236.   8.091  4.52E-09  6.90E-07  5.85E-06  8.93E-04  0.00E+00  0.00E+00  5.85E-06  8.94E-04  1.22E-02  0.99924
   1238.   8.078  9.75E-09  1.49E-06  5.81E-06  8.91E-04  0.00E+00  0.00E+00  5.82E-06  8.93E-04  1.22E-02  0.99836
   1240.   8.065  1.11E-08  1.71E-06  5.79E-06  8.90E-04  0.00E+00  0.00E+00  5.80E-06  8.91E-04  1.22E-02  0.99812
   1242.   8.052  9.43E-09  1.45E-06  5.76E-06  8.88E-04  0.00E+00  0.00E+00  5.77E-06  8.90E-04  1.22E-02  0.99840
   1244.   8.039  9.45E-08  1.46E-05  5.65E-06  8.74E-04  0.00E+00  0.00E+00  5.74E-06  8.89E-04  1.22E-02  0.98387
   1246.   8.026  9.96E-09  1.55E-06  5.70E-06  8.86E-04  0.00E+00  0.00E+00  5.71E-06  8.87E-04  1.22E-02  0.99829
   1248.   8.013  8.25E-09  1.29E-06  5.68E-06  8.84E-04  0.00E+00  0.00E+00  5.69E-06  8.86E-04  1.22E-02  0.99858
   1250.   8.000  4.70E-09  7.34E-07  5.65E-06  8.84E-04  0.00E+00  0.00E+00  5.66E-06  8.84E-04  1.22E-02  0.99919
   1252.   7.987  8.15E-09  1.28E-06  5.62E-06  8.82E-04  0.00E+00  0.00E+00  5.63E-06  8.83E-04  1.23E-02  0.99858
   1254.   7.974  6.99E-09  1.10E-06  5.60E-06  8.80E-04  0.00E+00  0.00E+00  5.60E-06  8.81E-04  1.23E-02  0.99878
   1256.   7.962  6.64E-09  1.05E-06  5.57E-06  8.79E-04  0.00E+00  0.00E+00  5.58E-06  8.80E-04  1.23E-02  0.99883
   1258.   7.949  2.03E-08  3.22E-06  5.53E-06  8.75E-04  0.00E+00  0.00E+00  5.55E-06  8.78E-04  1.23E-02  0.99641
   1260.   7.937  2.64E-07  4.19E-05  5.27E-06  8.36E-04  0.00E+00  0.00E+00  5.53E-06  8.78E-04  1.23E-02  0.95319
   1262.   7.924  2.23E-08  3.55E-06  5.47E-06  8.72E-04  0.00E+00  0.00E+00  5.50E-06  8.76E-04  1.23E-02  0.99603
   1264.   7.911  2.90E-08  4.63E-06  5.44E-06  8.69E-04  0.00E+00  0.00E+00  5.47E-06  8.74E-04  1.23E-02  0.99480
   1266.   7.899  7.45E-08  1.19E-05  5.37E-06  8.61E-04  0.00E+00  0.00E+00  5.44E-06  8.73E-04  1.23E-02  0.98659
   1268.   7.886  1.30E-07  2.08E-05  5.29E-06  8.51E-04  0.00E+00  0.00E+00  5.42E-06  8.71E-04  1.23E-02  0.97657
   1270.   7.874  1.75E-07  2.83E-05  5.22E-06  8.42E-04  0.00E+00  0.00E+00  5.39E-06  8.70E-04  1.24E-02  0.96810
   1272.   7.862  2.85E-07  4.61E-05  5.08E-06  8.23E-04  0.00E+00  0.00E+00  5.37E-06  8.69E-04  1.24E-02  0.94794
   1274.   7.849  1.45E-08  2.35E-06  5.32E-06  8.64E-04  0.00E+00  0.00E+00  5.34E-06  8.66E-04  1.24E-02  0.99734
   1276.   7.837  6.91E-09  1.13E-06  5.30E-06  8.64E-04  0.00E+00  0.00E+00  5.31E-06  8.65E-04  1.24E-02  0.99872
   1278.   7.825  6.38E-09  1.04E-06  5.28E-06  8.62E-04  0.00E+00  0.00E+00  5.29E-06  8.63E-04  1.24E-02  0.99882
   1280.   7.813  6.18E-08  1.01E-05  5.20E-06  8.52E-04  0.00E+00  0.00E+00  5.26E-06  8.62E-04  1.24E-02  0.98847
   1282.   7.800  1.48E-08  2.44E-06  5.22E-06  8.58E-04  0.00E+00  0.00E+00  5.23E-06  8.60E-04  1.24E-02  0.99722
   1284.   7.788  2.56E-08  4.22E-06  5.18E-06  8.54E-04  0.00E+00  0.00E+00  5.21E-06  8.59E-04  1.24E-02  0.99518
   1286.   7.776  9.60E-08  1.59E-05  5.09E-06  8.41E-04  0.00E+00  0.00E+00  5.18E-06  8.57E-04  1.24E-02  0.98180
   1288.   7.764  2.43E-07  4.03E-05  4.92E-06  8.16E-04  0.00E+00  0.00E+00  5.16E-06  8.56E-04  1.24E-02  0.95387
   1290.   7.752  7.86E-08  1.31E-05  5.05E-06  8.41E-04  0.00E+00  0.00E+00  5.13E-06  8.54E-04  1.25E-02  0.98498
   1292.   7.740  5.44E-08  9.08E-06  5.05E-06  8.43E-04  0.00E+00  0.00E+00  5.11E-06  8.52E-04  1.25E-02  0.98958
   1294.   7.728  1.04E-08  1.74E-06  5.07E-06  8.49E-04  0.00E+00  0.00E+00  5.08E-06  8.51E-04  1.25E-02  0.99800
   1296.   7.716  8.63E-08  1.45E-05  4.97E-06  8.35E-04  0.00E+00  0.00E+00  5.06E-06  8.49E-04  1.25E-02  0.98324
   1298.   7.704  3.97E-08  6.68E-06  4.99E-06  8.41E-04  0.00E+00  0.00E+00  5.03E-06  8.48E-04  1.25E-02  0.99229
1                                             RADIANCE(WATTS/CM2-STER-XXX)
0  FREQ   WAVLEN    PATH THERMAL      SURFACE EMISSION    SURFACE REFLECTED     TOTAL RADIANCE   INTEGRAL    TOTAL
  (CM-1) (MICRN)    (CM-1)   (MICRN)    (CM-1)   (MICRN)    (CM-1)   (MICRN)    (CM-1)   (MICRN)    (CM-1)   TRANS

   1300.   7.692  7.68E-09  1.30E-06  5.00E-06  8.45E-04  0.00E+00  0.00E+00  5.00E-06  8.46E-04  1.25E-02  0.99850
   1302.   7.680  8.96E-09  1.52E-06  4.97E-06  8.43E-04  0.00E+00  0.00E+00  4.98E-06  8.44E-04  1.25E-02  0.99824
   1304.   7.669  2.11E-08  3.58E-06  4.93E-06  8.39E-04  0.00E+00  0.00E+00  4.96E-06  8.43E-04  1.25E-02  0.99583
   1306.   7.657  3.24E-08  5.52E-06  4.90E-06  8.35E-04  0.00E+00  0.00E+00  4.93E-06  8.41E-04  1.25E-02  0.99357
   1308.   7.645  1.70E-07  2.91E-05  4.74E-06  8.11E-04  0.00E+00  0.00E+00  4.91E-06  8.40E-04  1.26E-02  0.96607
   1310.   7.634  2.84E-08  4.88E-06  4.85E-06  8.33E-04  0.00E+00  0.00E+00  4.88E-06  8.38E-04  1.26E-02  0.99429
   1312.   7.622  3.35E-07  5.76E-05  4.53E-06  7.79E-04  0.00E+00  0.00E+00  4.86E-06  8.37E-04  1.26E-02  0.93237
   1314.   7.610  4.84E-07  8.36E-05  4.36E-06  7.52E-04  0.00E+00  0.00E+00  4.84E-06  8.36E-04  1.26E-02  0.90184
   1316.   7.599  3.76E-07  6.52E-05  4.44E-06  7.69E-04  0.00E+00  0.00E+00  4.81E-06  8.34E-04  1.26E-02  0.92323
   1318.   7.587  5.90E-07  1.02E-04  4.20E-06  7.30E-04  0.00E+00  0.00E+00  4.79E-06  8.33E-04  1.26E-02  0.87910
   1320.   7.576  5.60E-07  9.76E-05  4.21E-06  7.33E-04  0.00E+00  0.00E+00  4.77E-06  8.31E-04  1.26E-02  0.88471
   1322.   7.564  1.15E-07  2.02E-05  4.62E-06  8.08E-04  0.00E+00  0.00E+00  4.74E-06  8.28E-04  1.26E-02  0.97613
   1324.   7.553  5.35E-08  9.39E-06  4.66E-06  8.17E-04  0.00E+00  0.00E+00  4.71E-06  8.26E-04  1.26E-02  0.98888
   1326.   7.541  2.18E-08  3.83E-06  4.67E-06  8.20E-04  0.00E+00  0.00E+00  4.69E-06  8.24E-04  1.26E-02  0.99544
   1328.   7.530  3.27E-08  5.76E-06  4.63E-06  8.17E-04  0.00E+00  0.00E+00  4.66E-06  8.22E-04  1.26E-02  0.99314
   1330.   7.519  7.65E-08  1.35E-05  4.56E-06  8.07E-04  0.00E+00  0.00E+00  4.64E-06  8.21E-04  1.27E-02  0.98384
   1332.   7.508  2.51E-08  4.46E-06  4.59E-06  8.15E-04  0.00E+00  0.00E+00  4.62E-06  8.19E-04  1.27E-02  0.99466
   1334.   7.496  3.46E-08  6.16E-06  4.56E-06  8.11E-04  0.00E+00  0.00E+00  4.59E-06  8.17E-04  1.27E-02  0.99261
   1336.   7.485  4.05E-07  7.22E-05  4.17E-06  7.45E-04  0.00E+00  0.00E+00  4.58E-06  8.17E-04  1.27E-02  0.91303
   1338.   7.474  9.87E-07  1.77E-04  3.58E-06  6.40E-04  0.00E+00  0.00E+00  4.56E-06  8.17E-04  1.27E-02  0.78704
   1340.   7.463  1.75E-06  3.14E-04  2.81E-06  5.04E-04  0.00E+00  0.00E+00  4.56E-06  8.18E-04  1.27E-02  0.62066
   1342.   7.452  1.46E-07  2.63E-05  4.36E-06  7.84E-04  0.00E+00  0.00E+00  4.50E-06  8.11E-04  1.27E-02  0.96819
   1344.   7.440  4.45E-08  8.04E-06  4.43E-06  8.01E-04  0.00E+00  0.00E+00  4.48E-06  8.09E-04  1.27E-02  0.99025
   1346.   7.429  3.30E-08  5.98E-06  4.42E-06  8.01E-04  0.00E+00  0.00E+00  4.45E-06  8.07E-04  1.27E-02  0.99273
   1348.   7.418  1.47E-07  2.67E-05  4.29E-06  7.79E-04  0.00E+00  0.00E+00  4.43E-06  8.05E-04  1.27E-02  0.96744
   1350.   7.407  1.69E-07  3.08E-05  4.24E-06  7.73E-04  0.00E+00  0.00E+00  4.41E-06  8.04E-04  1.27E-02  0.96252
   1352.   7.396  4.31E-08  7.89E-06  4.34E-06  7.94E-04  0.00E+00  0.00E+00  4.38E-06  8.01E-04  1.28E-02  0.99035
   1354.   7.386  2.42E-07  4.44E-05  4.12E-06  7.56E-04  0.00E+00  0.00E+00  4.37E-06  8.00E-04  1.28E-02  0.94550
   1356.   7.375  2.17E-07  3.99E-05  4.13E-06  7.59E-04  0.00E+00  0.00E+00  4.34E-06  7.99E-04  1.28E-02  0.95103
   1358.   7.364  1.91E-07  3.52E-05  4.13E-06  7.62E-04  0.00E+00  0.00E+00  4.32E-06  7.97E-04  1.28E-02  0.95671
   1360.   7.353  4.83E-07  8.93E-05  3.82E-06  7.07E-04  0.00E+00  0.00E+00  4.30E-06  7.96E-04  1.28E-02  0.88954
   1362.   7.342  1.38E-06  2.56E-04  2.92E-06  5.42E-04  0.00E+00  0.00E+00  4.30E-06  7.97E-04  1.28E-02  0.68327
   1364.   7.331  9.90E-07  1.84E-04  3.28E-06  6.10E-04  0.00E+00  0.00E+00  4.27E-06  7.94E-04  1.28E-02  0.77209
   1366.   7.321  6.36E-08  1.19E-05  4.16E-06  7.77E-04  0.00E+00  0.00E+00  4.23E-06  7.89E-04  1.28E-02  0.98525
   1368.   7.310  4.30E-07  8.04E-05  3.78E-06  7.08E-04  0.00E+00  0.00E+00  4.21E-06  7.89E-04  1.28E-02  0.89970
   1370.   7.299  4.16E-07  7.81E-05  3.78E-06  7.09E-04  0.00E+00  0.00E+00  4.19E-06  7.87E-04  1.28E-02  0.90267
   1372.   7.289  3.31E-07  6.22E-05  3.84E-06  7.22E-04  0.00E+00  0.00E+00  4.17E-06  7.85E-04  1.28E-02  0.92206
   1374.   7.278  1.58E-06  2.99E-04  2.59E-06  4.89E-04  0.00E+00  0.00E+00  4.17E-06  7.87E-04  1.28E-02  0.62524
   1376.   7.267  6.33E-07  1.20E-04  3.50E-06  6.62E-04  0.00E+00  0.00E+00  4.13E-06  7.82E-04  1.29E-02  0.84964
   1378.   7.257  4.58E-07  8.70E-05  3.65E-06  6.93E-04  0.00E+00  0.00E+00  4.11E-06  7.80E-04  1.29E-02  0.89035
   1380.   7.246  2.77E-07  5.27E-05  3.80E-06  7.24E-04  0.00E+00  0.00E+00  4.08E-06  7.77E-04  1.29E-02  0.93348
   1382.   7.236  9.41E-08  1.80E-05  3.96E-06  7.57E-04  0.00E+00  0.00E+00  4.06E-06  7.75E-04  1.29E-02  0.97724
   1384.   7.225  7.86E-08  1.50E-05  3.96E-06  7.58E-04  0.00E+00  0.00E+00  4.03E-06  7.73E-04  1.29E-02  0.98090
   1386.   7.215  7.17E-07  1.38E-04  3.31E-06  6.35E-04  0.00E+00  0.00E+00  4.03E-06  7.73E-04  1.29E-02  0.82460
   1388.   7.205  1.70E-06  3.28E-04  2.32E-06  4.48E-04  0.00E+00  0.00E+00  4.02E-06  7.75E-04  1.29E-02  0.58232
   1390.   7.194  2.20E-07  4.25E-05  3.75E-06  7.25E-04  0.00E+00  0.00E+00  3.97E-06  7.68E-04  1.29E-02  0.94563
   1392.   7.184  2.42E-07  4.70E-05  3.71E-06  7.19E-04  0.00E+00  0.00E+00  3.95E-06  7.66E-04  1.29E-02  0.93982
   1394.   7.174  1.89E-06  3.67E-04  2.07E-06  4.03E-04  0.00E+00  0.00E+00  3.96E-06  7.70E-04  1.29E-02  0.52824
   1396.   7.163  1.24E-06  2.42E-04  2.69E-06  5.24E-04  0.00E+00  0.00E+00  3.93E-06  7.66E-04  1.29E-02  0.68902
   1398.   7.153  1.35E-06  2.65E-04  2.56E-06  5.00E-04  0.00E+00  0.00E+00  3.91E-06  7.65E-04  1.29E-02  0.65798
1                                             RADIANCE(WATTS/CM2-STER-XXX)
0  FREQ   WAVLEN    PATH THERMAL      SURFACE EMISSION    SURFACE REFLECTED     TOTAL RADIANCE   INTEGRAL    TOTAL
  (CM-1) (MICRN)    (CM-1)   (MICRN)    (CM-1)   (MICRN)    (CM-1)   (MICRN)    (CM-1)   (MICRN)    (CM-1)   TRANS

   1400.   7.143  1.10E-06  2.16E-04  2.78E-06  5.46E-04  0.00E+00  0.00E+00  3.89E-06  7.62E-04  1.30E-02  0.72089
   1402.   7.133  1.47E-07  2.89E-05  3.70E-06  7.27E-04  0.00E+00  0.00E+00  3.85E-06  7.56E-04  1.30E-02  0.96251
   1404.   7.123  8.34E-07  1.64E-04  3.01E-06  5.93E-04  0.00E+00  0.00E+00  3.84E-06  7.57E-04  1.30E-02  0.78585
   1406.   7.112  5.96E-07  1.18E-04  3.22E-06  6.36E-04  0.00E+00  0.00E+00  3.82E-06  7.54E-04  1.30E-02  0.84684
   1408.   7.102  8.71E-08  1.73E-05  3.70E-06  7.33E-04  0.00E+00  0.00E+00  3.78E-06  7.50E-04  1.30E-02  0.97743
   1410.   7.092  2.74E-07  5.44E-05  3.49E-06  6.95E-04  0.00E+00  0.00E+00  3.77E-06  7.49E-04  1.30E-02  0.92869
   1412.   7.082  4.33E-07  8.64E-05  3.32E-06  6.62E-04  0.00E+00  0.00E+00  3.75E-06  7.48E-04  1.30E-02  0.88659
   1414.   7.072  1.10E-07  2.21E-05  3.61E-06  7.23E-04  0.00E+00  0.00E+00  3.72E-06  7.45E-04  1.30E-02  0.97089
   1416.   7.062  9.25E-07  1.86E-04  2.80E-06  5.61E-04  0.00E+00  0.00E+00  3.72E-06  7.46E-04  1.30E-02  0.75481
   1418.   7.052  1.65E-06  3.31E-04  2.07E-06  4.16E-04  0.00E+00  0.00E+00  3.72E-06  7.47E-04  1.30E-02  0.56102
   1420.   7.042  2.32E-06  4.68E-04  1.39E-06  2.79E-04  0.00E+00  0.00E+00  3.71E-06  7.48E-04  1.30E-02  0.37886
   1422.   7.032  3.60E-07  7.28E-05  3.29E-06  6.65E-04  0.00E+00  0.00E+00  3.65E-06  7.38E-04  1.30E-02  0.90319
   1424.   7.022  1.26E-06  2.56E-04  2.38E-06  4.83E-04  0.00E+00  0.00E+00  3.65E-06  7.40E-04  1.30E-02  0.65791
   1426.   7.013  2.03E-07  4.12E-05  3.41E-06  6.92E-04  0.00E+00  0.00E+00  3.61E-06  7.34E-04  1.30E-02  0.94490
   1428.   7.003  4.29E-07  8.74E-05  3.16E-06  6.45E-04  0.00E+00  0.00E+00  3.59E-06  7.33E-04  1.31E-02  0.88266
   1430.   6.993  1.19E-06  2.42E-04  2.40E-06  4.92E-04  0.00E+00  0.00E+00  3.59E-06  7.34E-04  1.31E-02  0.67426
   1432.   6.983  4.68E-07  9.60E-05  3.09E-06  6.33E-04  0.00E+00  0.00E+00  3.56E-06  7.29E-04  1.31E-02  0.87059
   1434.   6.974  4.69E-07  9.65E-05  3.07E-06  6.31E-04  0.00E+00  0.00E+00  3.54E-06  7.27E-04  1.31E-02  0.86961
   1436.   6.964  2.28E-06  4.70E-04  1.27E-06  2.62E-04  0.00E+00  0.00E+00  3.55E-06  7.33E-04  1.31E-02  0.36204
   1438.   6.954  1.19E-06  2.45E-04  2.33E-06  4.81E-04  0.00E+00  0.00E+00  3.51E-06  7.26E-04  1.31E-02  0.66761
   1440.   6.944  1.65E-07  3.43E-05  3.31E-06  6.86E-04  0.00E+00  0.00E+00  3.47E-06  7.20E-04  1.31E-02  0.95327
   1442.   6.935  1.19E-07  2.48E-05  3.33E-06  6.93E-04  0.00E+00  0.00E+00  3.45E-06  7.18E-04  1.31E-02  0.96613
   1444.   6.925  1.32E-07  2.76E-05  3.30E-06  6.89E-04  0.00E+00  0.00E+00  3.43E-06  7.16E-04  1.31E-02  0.96220
   1446.   6.916  4.27E-07  8.93E-05  3.00E-06  6.26E-04  0.00E+00  0.00E+00  3.42E-06  7.16E-04  1.31E-02  0.87726
   1448.   6.906  1.29E-06  2.70E-04  2.13E-06  4.47E-04  0.00E+00  0.00E+00  3.42E-06  7.17E-04  1.31E-02  0.62840
   1450.   6.897  2.07E-07  4.35E-05  3.17E-06  6.67E-04  0.00E+00  0.00E+00  3.38E-06  7.11E-04  1.31E-02  0.93999
   1452.   6.887  7.52E-07  1.59E-04  2.62E-06  5.53E-04  0.00E+00  0.00E+00  3.37E-06  7.11E-04  1.31E-02  0.78053
   1454.   6.878  7.74E-07  1.64E-04  2.58E-06  5.46E-04  0.00E+00  0.00E+00  3.36E-06  7.09E-04  1.31E-02  0.77251
   1456.   6.868  2.54E-06  5.38E-04  8.32E-07  1.76E-04  0.00E+00  0.00E+00  3.37E-06  7.15E-04  1.32E-02  0.25019
   1458.   6.859  2.71E-06  5.77E-04  6.43E-07  1.37E-04  0.00E+00  0.00E+00  3.36E-06  7.14E-04  1.32E-02  0.19498
   1460.   6.849  1.00E-06  2.14E-04  2.30E-06  4.90E-04  0.00E+00  0.00E+00  3.31E-06  7.05E-04  1.32E-02  0.70079
   1462.   6.840  2.77E-07  5.93E-05  3.00E-06  6.40E-04  0.00E+00  0.00E+00  3.27E-06  7.00E-04  1.32E-02  0.91675
   1464.   6.831  1.43E-06  3.07E-04  1.85E-06  3.96E-04  0.00E+00  0.00E+00  3.28E-06  7.02E-04  1.32E-02  0.56800
   1466.   6.821  9.47E-07  2.03E-04  2.30E-06  4.95E-04  0.00E+00  0.00E+00  3.25E-06  6.99E-04  1.32E-02  0.71332
   1468.   6.812  2.55E-07  5.51E-05  2.96E-06  6.39E-04  0.00E+00  0.00E+00  3.22E-06  6.94E-04  1.32E-02  0.92209
   1470.   6.803  5.14E-07  1.11E-04  2.69E-06  5.82E-04  0.00E+00  0.00E+00  3.21E-06  6.93E-04  1.32E-02  0.84218
   1472.   6.793  2.12E-06  4.59E-04  1.10E-06  2.39E-04  0.00E+00  0.00E+00  3.22E-06  6.98E-04  1.32E-02  0.34706
   1474.   6.784  2.01E-06  4.36E-04  1.20E-06  2.60E-04  0.00E+00  0.00E+00  3.20E-06  6.95E-04  1.32E-02  0.37845
   1476.   6.775  1.57E-06  3.42E-04  1.61E-06  3.50E-04  0.00E+00  0.00E+00  3.17E-06  6.92E-04  1.32E-02  0.51074
   1478.   6.766  3.83E-07  8.36E-05  2.75E-06  6.01E-04  0.00E+00  0.00E+00  3.13E-06  6.84E-04  1.32E-02  0.88013
   1480.   6.757  4.30E-07  9.41E-05  2.69E-06  5.89E-04  0.00E+00  0.00E+00  3.12E-06  6.83E-04  1.32E-02  0.86433
   1482.   6.748  5.26E-07  1.15E-04  2.58E-06  5.66E-04  0.00E+00  0.00E+00  3.10E-06  6.81E-04  1.32E-02  0.83351
   1484.   6.739  1.89E-07  4.16E-05  2.89E-06  6.36E-04  0.00E+00  0.00E+00  3.08E-06  6.78E-04  1.32E-02  0.93980
   1486.   6.729  9.84E-07  2.17E-04  2.09E-06  4.62E-04  0.00E+00  0.00E+00  3.08E-06  6.79E-04  1.32E-02  0.68400
   1488.   6.720  1.45E-06  3.22E-04  1.61E-06  3.57E-04  0.00E+00  0.00E+00  3.07E-06  6.80E-04  1.33E-02  0.53103
   1490.   6.711  2.09E-06  4.65E-04  9.72E-07  2.16E-04  0.00E+00  0.00E+00  3.06E-06  6.80E-04  1.33E-02  0.32153
   1492.   6.702  7.97E-07  1.77E-04  2.22E-06  4.95E-04  0.00E+00  0.00E+00  3.02E-06  6.73E-04  1.33E-02  0.74052
   1494.   6.693  3.88E-07  8.67E-05  2.61E-06  5.82E-04  0.00E+00  0.00E+00  3.00E-06  6.69E-04  1.33E-02  0.87258
   1496.   6.684  1.86E-06  4.16E-04  1.15E-06  2.58E-04  0.00E+00  0.00E+00  3.01E-06  6.74E-04  1.33E-02  0.38764
   1498.   6.676  1.67E-06  3.76E-04  1.31E-06  2.95E-04  0.00E+00  0.00E+00  2.99E-06  6.71E-04  1.33E-02  0.44462
1                                             RADIANCE(WATTS/CM2-STER-XXX)
0  FREQ   WAVLEN    PATH THERMAL      SURFACE EMISSION    SURFACE REFLECTED     TOTAL RADIANCE   INTEGRAL    TOTAL
  (CM-1) (MICRN)    (CM-1)   (MICRN)    (CM-1)   (MICRN)    (CM-1)   (MICRN)    (CM-1)   (MICRN)    (CM-1)   TRANS

   1500.   6.667  1.01E-06  2.28E-04  1.95E-06  4.38E-04  0.00E+00  0.00E+00  2.96E-06  6.66E-04  1.33E-02  0.66261
0INTEGRATED ABSORPTION FROM  100 TO 1500 CM-1 =    247.53 CM-1
 AVERAGE TRANSMITTANCE =0.8232

0INTEGRATED RADIANCE =  1.329E-02 WATTS CM-2 STER-1
 MINIMUM RADIANCE    =  1.933E-06 WATTS CM-2 STER-1 (CM-1)-1 AT      100.0 CM-1
 MAXIMUM RADIANCE    =  1.503E-05 WATTS CM-2 STER-1 (CM-1)-1 AT      592.0 CM-1
 BOUNDARY TEMPERATURE =     299.70 K
 BOUNDARY EMISSIVITY =       0.980
0 CARD 5 *****    0
