*****  MODTRAN3 Version 1.3  12/1/95  *****
0 CARD 1  *****T   1    3    1    0    0    0    0    0    0    0    0    0   -1   0.000  -1.00
0 CARD 2  *****    2    0    0    0    0    0     0.000     0.000     0.000     0.000     0.000
0 CARD 3  *****     1.000     0.000   180.000     0.000     0.000     0.000    0
0 CARD 4  *****       100      1500         2         2
0 PROGRAM WILL COMPUTE RADIANCE                
0 ATMOSPHERIC MODEL
          TEMPERATURE =    1     TROPICAL MODEL      
          WATER VAPOR =    1     TROPICAL MODEL      
          OZONE       =    1     TROPICAL MODEL      
                      M4 =     1 M5 =     1 M6 =     1 MDEF =     1
0 AEROSOL MODEL
          REGIME                  AEROSOL TYPE             PROFILE                  SEASON

          BOUNDARY LAYER (0-2 KM) RURAL                      5.0 KM VIS AT SEA LEVEL
          TROPOSPHERE  (2-10KM)   TROPOSPHERIC             TROPOSPHERIC             SPRING-SUMMER       
          STRATOSPHERE (10-30KM)  BACKGROUND STRATO        BACKGROUND STRATO        SPRING-SUMMER       
          UPPER ATMOS (30-100KM)  METEORIC DUST            NORMAL              
0 SLANT PATH TO SPACE
          H1    =      1.000 KM
          HMIN  =      0.000 KM
          ANGLE =    180.000 DEG
0 FREQUENCY RANGE
             IV1 =       100 CM-1  (    100.00 MICROMETERS)
             IV2 =      1500 CM-1  (      6.67 MICROMETERS)
             IDV =         2 CM-1
           IFWHM =         2 CM-1
1
  ATMOSPHERIC PROFILES

   I     Z       P       T        N2       CNTMSLF MOL SCAT     N-1     O3 (UV)  O2 (UV)
        (KM)    (MB)    (K)            (MOL/CM2 KM)   (-)       (-)  (ATM CM/KM) (ATM CM/KM)

   1     0.00 1013.000  299.7  7.622E-01 1.623E+21 9.112E-01 2.609E-04 2.612E-03 3.342E+04
   2     1.00  904.000  293.7  6.321E-01 7.602E+20 8.298E-01 2.379E-04 2.612E-03 2.927E+04
   3     2.00  805.000  287.7  5.223E-01 3.892E+20 7.543E-01 2.164E-04 2.519E-03 2.562E+04
   4     3.00  715.000  283.7  4.238E-01 9.924E+19 6.794E-01 1.951E-04 2.379E-03 2.219E+04
   5     4.00  633.000  277.0  3.484E-01 2.176E+19 6.160E-01 1.770E-04 2.192E-03 1.945E+04
   6     5.00  559.000  270.3  2.853E-01 1.012E+19 5.575E-01 1.603E-04 2.099E-03 1.703E+04
   7     6.00  492.000  263.6  2.324E-01 3.249E+18 5.032E-01 1.447E-04 2.006E-03 1.490E+04
   8     7.00  432.000  257.0  1.885E-01 9.917E+17 4.531E-01 1.303E-04 1.912E-03 1.302E+04
   9     8.00  378.000  250.3  1.522E-01 2.810E+17 4.071E-01 1.171E-04 1.819E-03 1.138E+04
  10     9.00  329.000  243.6  1.217E-01 6.471E+16 3.641E-01 1.047E-04 1.819E-03 9.902E+03
  11    10.00  286.000  237.0  9.716E-02 1.125E+16 3.253E-01 9.355E-05 1.819E-03 8.629E+03
  12    11.00  247.000  230.1  7.688E-02 1.299E+15 2.894E-01 8.322E-05 1.912E-03 7.496E+03
  13    12.00  213.000  223.6  6.054E-02 1.618E+14 2.568E-01 7.385E-05 2.006E-03 6.507E+03
  14    13.00  182.000  217.0  4.693E-02 1.456E+13 2.261E-01 6.502E-05 2.099E-03 5.608E+03
  15    14.00  156.000  210.3  3.671E-02 4.497E+12 2.000E-01 5.751E-05 2.098E-03 4.870E+03
  16    15.00  132.000  203.7  2.802E-02 1.419E+12 1.747E-01 5.024E-05 2.193E-03 4.178E+03
  17    16.00  111.000  197.0  2.118E-02 6.036E+11 1.519E-01 4.368E-05 2.192E-03 3.572E+03
  18    17.00   93.700  194.8  1.544E-02 4.110E+11 1.297E-01 3.729E-05 3.240E-03 3.000E+03
  19    18.00   78.900  198.8  1.051E-02 2.516E+11 1.070E-01 3.077E-05 5.346E-03 2.433E+03
  20    19.00   66.600  202.7  7.202E-03 1.542E+11 8.857E-02 2.547E-05 8.409E-03 1.986E+03
  21    20.00   56.500  206.7  4.985E-03 1.067E+11 7.369E-02 2.119E-05 1.031E-02 1.633E+03
  22    21.00   48.000  210.7  3.463E-03 7.699E+10 6.141E-02 1.766E-05 1.105E-02 1.348E+03
  23    22.00   40.900  214.6  2.423E-03 6.016E+10 5.138E-02 1.478E-05 1.232E-02 1.119E+03
  24    23.00   35.000  217.0  1.736E-03 4.622E+10 4.348E-02 1.250E-05 1.477E-02 9.409E+02
  25    24.00   30.000  219.2  1.250E-03 4.052E+10 3.689E-02 1.061E-05 1.585E-02 7.942E+02
  26    25.00   25.700  221.4  8.990E-04 3.007E+10 3.129E-02 8.999E-06 1.689E-02 6.705E+02
  27    30.00   12.200  232.3  1.840E-04 9.323E+09 1.416E-02 4.072E-06 1.316E-02 2.992E+02
  28    35.00    6.000  243.1  4.064E-05 2.723E+09 6.654E-03 1.913E-06 6.450E-03 1.397E+02
  29    40.00    3.050  254.0  9.620E-06 8.236E+08 3.237E-03 9.309E-07 2.426E-03 6.779E+01
  30    45.00    1.590  264.8  2.405E-06 2.475E+08 1.619E-03 4.655E-07 7.279E-04 3.385E+01
  31    50.00    0.854  270.2  6.665E-07 7.597E+07 8.520E-04 2.450E-07 2.384E-04 1.781E+01
  32    70.00    0.058  218.9  4.684E-09 3.003E+05 7.143E-05 2.054E-08 2.141E-06 1.492E+00
  33   100.00    0.000  190.7  1.532E-13 7.763E-02 4.085E-07 1.175E-10 1.633E-08 6.532E-03
1
  ATMOSPHERIC PROFILES

   I     Z       P       T      CNTMFRN     HNO3    AEROSOL 1 AEROSOL 2 AEROSOL 3 AEROSOL 4 AER1*RH   CIRRUS         RH
        (KM)    (MB)    (K)   MOL/CM2 KM ATM CM/KM   (-)       (-)       (-)       (-)       (-)       (-)      (PERCNT)

   1     0.00 1013.000  299.7  6.101E+22 4.556E-06 7.700E-01 0.000E+00 0.000E+00 0.000E+00 2.462E+00 0.000E+00 7.553E+01
   2     1.00  904.000  293.7  3.828E+22 4.945E-06 7.700E-01 0.000E+00 0.000E+00 0.000E+00 2.544E+00 0.000E+00 7.277E+01
   3     2.00  805.000  287.7  2.500E+22 5.227E-06 6.210E-02 0.000E+00 0.000E+00 0.000E+00 2.011E-01 0.000E+00 7.451E+01
   4     3.00  715.000  283.7  1.145E+22 5.374E-06 0.000E+00 3.460E-02 0.000E+00 0.000E+00 0.000E+00 0.000E+00 4.825E+01
   5     4.00  633.000  277.0  4.881E+21 5.464E-06 0.000E+00 1.850E-02 0.000E+00 0.000E+00 0.000E+00 0.000E+00 3.491E+01
   6     5.00  559.000  270.3  3.015E+21 5.436E-06 0.000E+00 9.310E-03 0.000E+00 0.000E+00 0.000E+00 0.000E+00 3.771E+01
   7     6.00  492.000  263.6  1.544E+21 5.585E-06 0.000E+00 7.710E-03 0.000E+00 0.000E+00 0.000E+00 0.000E+00 3.479E+01
   8     7.00  432.000  257.0  7.690E+20 5.710E-06 0.000E+00 6.230E-03 0.000E+00 0.000E+00 0.000E+00 0.000E+00 3.198E+01
   9     8.00  378.000  250.3  3.680E+20 5.659E-06 0.000E+00 3.370E-03 0.000E+00 0.000E+00 0.000E+00 0.000E+00 2.947E+01
  10     9.00  329.000  243.6  1.580E+20 5.571E-06 0.000E+00 1.820E-03 0.000E+00 0.000E+00 0.000E+00 0.000E+00 2.535E+01
  11    10.00  286.000  237.0  5.886E+19 5.660E-06 0.000E+00 1.140E-03 0.000E+00 0.000E+00 0.000E+00 0.000E+00 1.951E+01
  12    11.00  247.000  230.1  1.780E+19 5.845E-06 0.000E+00 0.000E+00 7.990E-04 0.000E+00 0.000E+00 0.000E+00 1.315E+01
  13    12.00  213.000  223.6  5.573E+18 6.189E-06 0.000E+00 0.000E+00 6.410E-04 0.000E+00 0.000E+00 0.000E+00 9.253E+00
  14    13.00  182.000  217.0  1.472E+18 6.240E-06 0.000E+00 0.000E+00 5.170E-04 0.000E+00 0.000E+00 0.000E+00 5.881E+00
  15    14.00  156.000  210.3  7.236E+17 6.659E-06 0.000E+00 0.000E+00 4.420E-04 0.000E+00 0.000E+00 0.000E+00 7.410E+00
  16    15.00  132.000  203.7  3.551E+17 7.896E-06 0.000E+00 0.000E+00 3.950E-04 0.000E+00 0.000E+00 0.000E+00 9.923E+00
  17    16.00  111.000  197.0  2.014E+17 1.119E-05 0.000E+00 0.000E+00 3.820E-04 0.000E+00 0.000E+00 0.000E+00 1.677E+01
  18    17.00   93.700  194.8  1.419E+17 1.699E-05 0.000E+00 0.000E+00 4.250E-04 0.000E+00 0.000E+00 0.000E+00 1.924E+01
  19    18.00   78.900  198.8  9.158E+16 2.257E-05 0.000E+00 0.000E+00 5.200E-04 0.000E+00 0.000E+00 0.000E+00 8.321E+00
  20    19.00   66.600  202.7  5.934E+16 2.808E-05 0.000E+00 0.000E+00 5.810E-04 0.000E+00 0.000E+00 0.000E+00 3.752E+00
  21    20.00   56.500  206.7  4.107E+16 3.095E-05 0.000E+00 0.000E+00 5.890E-04 0.000E+00 0.000E+00 0.000E+00 1.818E+00
  22    21.00   48.000  210.7  2.908E+16 3.034E-05 0.000E+00 0.000E+00 5.020E-04 0.000E+00 0.000E+00 0.000E+00 9.217E-01
  23    22.00   40.900  214.6  2.150E+16 2.805E-05 0.000E+00 0.000E+00 4.200E-04 0.000E+00 0.000E+00 0.000E+00 5.033E-01
  24    23.00   35.000  217.0  1.595E+16 2.496E-05 0.000E+00 0.000E+00 3.000E-04 0.000E+00 0.000E+00 0.000E+00 3.313E-01
  25    24.00   30.000  219.2  1.267E+16 2.155E-05 0.000E+00 0.000E+00 1.980E-04 0.000E+00 0.000E+00 0.000E+00 2.401E-01
  26    25.00   25.700  221.4  9.258E+15 1.756E-05 0.000E+00 0.000E+00 1.310E-04 0.000E+00 0.000E+00 0.000E+00 1.611E-01
  27    30.00   12.200  232.3  2.333E+15 5.295E-06 0.000E+00 0.000E+00 3.320E-05 0.000E+00 0.000E+00 0.000E+00 2.817E-02
  28    35.00    6.000  243.1  5.924E+14 1.091E-06 0.000E+00 0.000E+00 0.000E+00 1.640E-05 0.000E+00 0.000E+00 5.440E-03
  29    40.00    3.050  254.0  1.585E+14 1.725E-07 0.000E+00 0.000E+00 0.000E+00 7.990E-06 0.000E+00 0.000E+00 1.173E-03
  30    45.00    1.590  264.8  4.345E+13 1.959E-08 0.000E+00 0.000E+00 0.000E+00 4.010E-06 0.000E+00 0.000E+00 2.777E-04
  31    50.00    0.854  270.2  1.267E+13 4.729E-09 0.000E+00 0.000E+00 0.000E+00 2.100E-06 0.000E+00 0.000E+00 1.041E-04
  32    70.00    0.058  218.9  6.679E+10 2.336E-10 0.000E+00 0.000E+00 0.000E+00 1.600E-07 0.000E+00 0.000E+00 6.767E-04
  33   100.00    0.000  190.7  1.942E+05 1.115E-12 0.000E+00 0.000E+00 0.000E+00 9.310E-10 0.000E+00 0.000E+00 1.583E-05
1
  ATMOSPHERIC PROFILES

   I      Z       P       T      H2O      O3       CO2      CO       CH4      N2O      O2       NH3      NO       NO2      SO2
         (KM)    (MB)    (K)  (                                 ATM CM/KM                                                     )
   1     0.00 1013.000  299.7  2.36E+03 2.61E-03 3.41E+01 1.37E-02 1.55E-01 2.91E-02 1.90E+04 4.55E-05 2.73E-05 2.09E-06 2.73E-05
   2     1.00  904.000  293.7  1.62E+03 2.61E-03 3.11E+01 1.20E-02 1.41E-01 2.65E-02 1.73E+04 4.15E-05 2.49E-05 1.91E-06 2.27E-05
   3     2.00  805.000  287.7  1.16E+03 2.52E-03 2.83E+01 1.05E-02 1.28E-01 2.41E-02 1.58E+04 3.49E-05 2.26E-05 1.73E-06 1.78E-05
   4     3.00  715.000  283.7  5.84E+02 2.38E-03 2.55E+01 9.16E-03 1.15E-01 2.17E-02 1.42E+04 2.58E-05 2.04E-05 1.56E-06 1.29E-05
   5     4.00  633.000  277.0  2.73E+02 2.19E-03 2.31E+01 8.08E-03 1.05E-01 1.97E-02 1.29E+04 1.77E-05 1.85E-05 1.42E-06 8.99E-06
   6     5.00  559.000  270.3  1.86E+02 2.10E-03 2.09E+01 7.26E-03 9.47E-02 1.78E-02 1.16E+04 1.14E-05 1.67E-05 1.28E-06 6.57E-06
   7     6.00  492.000  263.6  1.06E+02 2.01E-03 1.89E+01 6.48E-03 8.55E-02 1.61E-02 1.05E+04 7.34E-06 1.51E-05 1.16E-06 4.88E-06
   8     7.00  432.000  257.0  5.84E+01 1.91E-03 1.70E+01 5.65E-03 7.69E-02 1.45E-02 9.46E+03 4.47E-06 1.36E-05 1.04E-06 3.76E-06
   9     8.00  378.000  250.3  3.11E+01 1.82E-03 1.53E+01 4.82E-03 6.90E-02 1.30E-02 8.50E+03 2.64E-06 1.22E-05 9.36E-07 2.93E-06
  10     9.00  329.000  243.6  1.49E+01 1.82E-03 1.36E+01 3.98E-03 6.16E-02 1.16E-02 7.60E+03 1.37E-06 1.09E-05 8.44E-07 2.39E-06
  11    10.00  286.000  237.0  6.22E+00 1.82E-03 1.22E+01 3.24E-03 5.48E-02 1.03E-02 6.79E+03 6.60E-07 9.75E-06 7.74E-07 1.98E-06
  12    11.00  247.000  230.1  2.11E+00 1.91E-03 1.08E+01 2.59E-03 4.84E-02 9.08E-03 6.04E+03 3.15E-07 8.68E-06 7.58E-07 1.67E-06
  13    12.00  213.000  223.6  7.45E-01 2.01E-03 9.62E+00 2.01E-03 4.27E-02 7.94E-03 5.36E+03 1.62E-07 7.70E-06 8.08E-07 1.44E-06
  14    13.00  182.000  217.0  2.24E-01 2.10E-03 8.47E+00 1.44E-03 3.72E-02 6.89E-03 4.72E+03 7.05E-08 6.76E-06 1.01E-06 1.26E-06
  15    14.00  156.000  210.3  1.24E-01 2.10E-03 7.49E+00 1.00E-03 3.25E-02 5.99E-03 4.18E+03 2.22E-08 5.90E-06 1.49E-06 1.13E-06
  16    15.00  132.000  203.7  6.98E-02 2.19E-03 6.55E+00 6.88E-04 2.80E-02 5.14E-03 3.65E+03 7.80E-09 4.94E-06 2.99E-06 1.00E-06
  17    16.00  111.000  197.0  4.55E-02 2.19E-03 5.69E+00 4.66E-04 2.40E-02 4.37E-03 3.17E+03 3.20E-09 4.07E-06 4.84E-06 8.73E-07
  18    17.00   93.700  194.8  3.76E-02 3.24E-03 4.86E+00 3.23E-04 2.01E-02 3.61E-03 2.71E+03 1.43E-09 3.27E-06 6.73E-06 6.96E-07
  19    18.00   78.900  198.8  2.94E-02 5.35E-03 4.01E+00 2.10E-04 1.63E-02 2.86E-03 2.23E+03 7.16E-10 2.57E-06 8.24E-06 5.11E-07
  20    19.00   66.600  202.7  2.30E-02 8.41E-03 3.32E+00 1.37E-04 1.31E-02 2.24E-03 1.85E+03 3.51E-10 2.16E-06 9.38E-06 3.51E-07
  21    20.00   56.500  206.7  1.91E-02 1.03E-02 2.76E+00 9.80E-05 1.05E-02 1.74E-03 1.54E+03 1.77E-10 1.88E-06 1.02E-05 2.35E-07
  22    21.00   48.000  210.7  1.63E-02 1.10E-02 2.30E+00 7.56E-05 8.32E-03 1.35E-03 1.28E+03 1.18E-10 1.70E-06 1.08E-05 1.64E-07
  23    22.00   40.900  214.6  1.44E-02 1.23E-02 1.93E+00 6.33E-05 6.53E-03 1.05E-03 1.07E+03 8.83E-11 1.58E-06 1.11E-05 1.17E-07
  24    23.00   35.000  217.0  1.26E-02 1.48E-02 1.63E+00 5.68E-05 5.18E-03 8.55E-04 9.08E+02 6.91E-11 1.56E-06 1.12E-05 8.99E-08
  25    24.00   30.000  219.2  1.18E-02 1.59E-02 1.38E+00 5.16E-05 4.12E-03 6.91E-04 7.71E+02 5.31E-11 1.66E-06 1.13E-05 7.01E-08
  26    25.00   25.700  221.4  1.02E-02 1.69E-02 1.17E+00 4.76E-05 3.30E-03 5.49E-04 6.54E+02 3.85E-11 2.14E-06 1.17E-05 5.47E-08
  27    30.00   12.200  232.3  5.66E-03 1.32E-02 5.31E-01 2.82E-05 1.29E-03 2.00E-04 2.96E+02 8.98E-12 3.47E-06 8.72E-06 1.90E-08
  28    35.00    6.000  243.1  3.06E-03 6.45E-03 2.49E-01 1.65E-05 4.96E-04 6.17E-05 1.39E+02 1.21E-12 4.75E-06 4.84E-06 7.71E-09
  29    40.00    3.050  254.0  1.68E-03 2.43E-03 1.21E-01 1.00E-05 1.82E-04 1.46E-05 6.76E+01 9.51E-14 3.62E-06 1.30E-06 4.40E-09
  30    45.00    1.590  264.8  9.22E-04 7.28E-04 6.07E-02 6.45E-06 5.87E-05 2.57E-06 3.38E+01 4.82E-15 1.89E-06 1.86E-07 3.40E-09
  31    50.00    0.854  270.2  5.11E-04 2.38E-04 3.19E-02 4.34E-06 1.79E-05 4.05E-07 1.78E+01 6.07E-16 8.77E-07 3.77E-08 3.03E-09
  32    70.00    0.058  218.9  3.21E-05 2.14E-06 2.68E-03 1.38E-06 1.07E-06 8.20E-09 1.49E+00 1.83E-17 8.21E-08 1.65E-09 3.08E-10
  33   100.00    0.000  190.7  1.63E-08 1.63E-08 9.05E-06 6.96E-07 4.90E-09 1.36E-11 6.53E-03 6.04E-20 8.49E-08 6.94E-12 1.46E-14
1
  ATMOSPHERIC PROFILES

   I      Z       P       T     CFC-11   CFC-12   CFC-13   CFC-14   CFC-22   CFC-113  CFC-114  CFC-115  CLONO2    HNO4    CHCL2F 
                                 CCL4     N2O5  
         (KM)    (MB)    (K)  (                                 ATM CM/KM                                                     )
   1     0.00 1013.000  299.7  1.27E-05 2.19E-05 9.11E-14 9.11E-14 5.46E-06 1.73E-06 1.09E-06 9.11E-14 5.24E-07 3.95E-08 9.11E-14
                               1.18E-05 2.20E-11
   2     1.00  904.000  293.7  1.16E-05 1.99E-05 8.29E-14 8.29E-14 4.97E-06 1.58E-06 9.95E-07 8.29E-14 4.25E-07 1.77E-07 8.29E-14
                               1.08E-05 7.91E-11
   3     2.00  805.000  287.7  1.06E-05 1.81E-05 7.54E-14 7.54E-14 4.52E-06 1.43E-06 9.05E-07 7.54E-14 3.40E-07 2.89E-07 7.54E-14
                               9.80E-06 1.26E-10
   4     3.00  715.000  283.7  9.51E-06 1.63E-05 6.79E-14 6.79E-14 4.06E-06 1.29E-06 8.15E-07 6.79E-14 2.64E-07 3.76E-07 6.79E-14
                               8.83E-06 1.61E-10
   5     4.00  633.000  277.0  8.62E-06 1.48E-05 6.16E-14 6.16E-14 3.68E-06 1.17E-06 7.39E-07 6.16E-14 2.01E-07 4.46E-07 6.16E-14
                               8.00E-06 1.90E-10
   6     5.00  559.000  270.3  7.80E-06 1.34E-05 5.57E-14 5.57E-14 3.33E-06 1.06E-06 6.69E-07 5.57E-14 1.53E-07 1.01E-06 5.57E-14
                               7.23E-06 2.01E-10
   7     6.00  492.000  263.6  7.04E-06 1.21E-05 5.03E-14 5.03E-14 3.00E-06 9.55E-07 6.03E-07 5.03E-14 1.13E-07 1.46E-06 5.03E-14
                               6.51E-06 2.07E-10
   8     7.00  432.000  257.0  6.34E-06 1.09E-05 4.53E-14 4.53E-14 2.70E-06 8.60E-07 5.43E-07 4.53E-14 7.90E-08 1.81E-06 4.53E-14
                               5.86E-06 2.10E-10
   9     8.00  378.000  250.3  5.70E-06 9.76E-06 4.07E-14 4.07E-14 2.43E-06 7.73E-07 4.88E-07 4.07E-14 5.04E-08 2.07E-06 4.07E-14
                               5.25E-06 2.10E-10
  10     9.00  329.000  243.6  5.09E-06 8.72E-06 3.64E-14 3.64E-14 2.17E-06 6.91E-07 4.37E-07 3.64E-14 4.40E-08 1.79E-06 3.64E-14
                               4.69E-06 2.10E-10
  11    10.00  286.000  237.0  4.54E-06 7.79E-06 3.25E-14 3.25E-14 1.94E-06 6.16E-07 3.90E-07 3.25E-14 3.82E-08 1.54E-06 3.25E-14
                               4.19E-06 2.07E-10
  12    11.00  247.000  230.1  4.03E-06 6.92E-06 2.89E-14 2.89E-14 1.72E-06 5.47E-07 3.47E-07 2.89E-14 3.31E-08 1.32E-06 2.89E-14
                               3.73E-06 2.02E-10
  13    12.00  213.000  223.6  3.57E-06 6.13E-06 2.57E-14 2.57E-14 1.53E-06 4.85E-07 3.08E-07 2.57E-14 2.85E-08 1.12E-06 2.57E-14
                               3.31E-06 1.94E-10
  14    13.00  182.000  217.0  3.05E-06 5.32E-06 2.26E-14 2.26E-14 1.33E-06 4.19E-07 2.68E-07 2.26E-14 1.81E-07 1.28E-06 2.26E-14
                               2.82E-06 9.96E-09
  15    14.00  156.000  210.3  2.62E-06 4.64E-06 2.00E-14 2.00E-14 1.17E-06 3.64E-07 2.35E-07 2.00E-14 2.98E-07 1.39E-06 2.00E-14
                               2.42E-06 1.75E-08
  16    15.00  132.000  203.7  2.22E-06 3.99E-06 1.75E-14 1.75E-14 1.01E-06 3.12E-07 2.03E-07 1.75E-14 3.81E-07 1.44E-06 1.75E-14
                               2.04E-06 2.28E-08
  17    16.00  111.000  197.0  1.87E-06 3.42E-06 1.52E-14 1.52E-14 8.68E-07 2.66E-07 1.75E-07 1.52E-14 4.36E-07 1.44E-06 1.52E-14
                               1.72E-06 2.64E-08
  18    17.00   93.700  194.8  1.46E-06 2.78E-06 1.30E-14 1.30E-14 7.21E-07 2.14E-07 1.45E-07 1.30E-14 1.32E-06 1.85E-06 1.30E-14
                               1.32E-06 1.14E-07
  19    18.00   78.900  198.8  1.09E-06 2.19E-06 1.07E-14 1.07E-14 5.78E-07 1.66E-07 1.16E-07 1.07E-14 1.86E-06 2.03E-06 1.07E-14
                               9.69E-07 1.69E-07
  20    19.00   66.600  202.7  8.05E-07 1.72E-06 8.85E-15 8.85E-15 4.65E-07 1.29E-07 9.32E-08 8.85E-15 2.19E-06 2.10E-06 8.85E-15
                               7.03E-07 2.02E-07
  21    20.00   56.500  206.7  5.91E-07 1.35E-06 7.36E-15 7.36E-15 3.75E-07 1.00E-07 7.51E-08 7.36E-15 2.36E-06 2.10E-06 7.36E-15
                               5.02E-07 2.20E-07
  22    21.00   48.000  210.7  4.21E-07 1.05E-06 6.14E-15 6.14E-15 3.00E-07 7.60E-08 5.99E-08 6.14E-15 2.82E-06 2.16E-06 6.14E-15
                               3.51E-07 2.54E-07
  23    22.00   40.900  214.6  2.93E-07 8.11E-07 5.13E-15 5.13E-15 2.41E-07 5.73E-08 4.78E-08 5.13E-15 3.08E-06 2.15E-06 5.13E-15
                               2.37E-07 2.72E-07
  24    23.00   35.000  217.0  1.98E-07 6.30E-07 4.35E-15 4.35E-15 1.95E-07 4.32E-08 3.85E-08 4.35E-15 3.22E-06 2.11E-06 4.35E-15
                               1.52E-07 2.80E-07
  25    24.00   30.000  219.2  1.25E-07 4.87E-07 3.69E-15 3.69E-15 1.59E-07 3.21E-08 3.10E-08 3.69E-15 3.24E-06 2.04E-06 3.69E-15
                               8.85E-08 2.81E-07
  26    25.00   25.700  221.4  8.53E-08 3.72E-07 3.13E-15 3.13E-15 1.28E-07 2.38E-08 2.49E-08 3.13E-15 3.04E-06 1.82E-06 3.13E-15
                               5.89E-08 2.41E-07
  27    30.00   12.200  232.3  5.52E-09 8.33E-08 1.41E-15 1.41E-15 4.28E-08 4.12E-09 7.97E-09 1.41E-15 1.61E-06 7.22E-07 1.41E-15
                               2.48E-09 7.81E-08
  28    35.00    6.000  243.1  1.32E-10 1.42E-08 6.65E-16 6.65E-16 1.38E-08 4.77E-10 2.43E-09 6.65E-16 3.48E-07 9.77E-08 6.65E-16
                               2.63E-11 7.19E-09
  29    40.00    3.050  254.0  5.98E-13 1.97E-09 3.23E-16 3.23E-16 4.50E-09 3.98E-11 7.50E-10 3.23E-16 1.38E-08 3.22E-09 3.23E-16
                               1.28E-14 6.89E-11
  30    45.00    1.590  264.8  1.49E-14 3.45E-10 1.62E-16 1.62E-16 1.68E-09 5.20E-12 2.62E-10 1.62E-16 2.72E-10 1.41E-10 1.62E-16
                               9.01E-17 6.37E-13
  31    50.00    0.854  270.2  5.08E-16 7.25E-11 8.51E-17 8.51E-17 7.48E-10 8.43E-13 1.06E-10 8.51E-17 3.97E-12 6.50E-12 8.51E-17
                               9.31E-19 5.35E-15
  32    70.00    0.058  218.9  3.63E-21 2.79E-13 7.14E-18 7.14E-18 5.13E-11 1.25E-15 4.18E-12 7.14E-18 5.16E-19 2.29E-16 7.14E-18
                               7.05E-26 5.85E-23
  33   100.00    0.000  190.7  1.27E-30 1.01E-18 4.08E-20 4.08E-20 7.31E-14 5.35E-22 8.70E-16 4.08E-20 3.30E-35 1.36E-31 4.08E-20
                               2.08E-38 0.00E+00


 CASE 3A: GIVEN H1,H2=SPACE,ANGLE



 TANGENT PATH WITH H1 =      1.000 AND ANGLE =    180.000 INTERSECTS THE EARTH

          H2 HAS BEEN RESET TO 0.0 AND LEN TO 0



 SLANT PATH PARAMETERS IN STANDARD FORM

          H1      =      1.000 KM
          H2      =      0.000 KM
          ANGLE   =    180.000 DEG
          PHI     =      0.000 DEG
          HMIN    =      0.000 KM
          LEN     =          0
1CALCULATION OF THE REFRACTED PATH THROUGH THE ATMOSPHERE


  I       ALTITUDE        THETA  DRANGE    RANGE    DBETA     BETA     PHI     DBEND  BENDING    PBAR    TBAR   RHOBAR
      FROM       TO
      (KM)      (KM)      (DEG)    (KM)     (KM)    (DEG)    (DEG)    (DEG)    (DEG)    (DEG)    (MB)    (K)  (GM CM-3)

          H2 TO H1

  1    0.000    1.000    0.000    1.000    1.000    0.000    0.000  180.000    0.000    0.000  958.316  296.74 1.12E-03




1CUMULATIVE ABSORBER AMOUNTS FOR THE PATH FROM H1 TO Z

  J     Z        TBAR     HNO3        O3 UV      CNTMSLF1   CNTMSLF2    CNTMFRN      O2
       (KM)       (K)   (ATM CM)    (ATM CM)    (MOL CM-2)  (MOL CM-2)  (MOL CM-2)(MOL CM-2)

  1    0.000   296.74   4.751E-06   2.612E-03   1.137E+21  -2.328E+19   4.876E+22   3.130E+04



1 J     Z       N2 CONT    MOL SCAT       AER 1       AER 2       AER 3       AER 4       CIRRUS
       (KM)

  1    0.000   6.951E-01   8.698E-01   7.700E-01   0.000E+00   0.000E+00   0.000E+00   0.000E+00



1  J    Z       H2O       O3        CO2       CO        CH4       N2O       O2        NH3       NO        NO2       SO2
      (KM)    (                                                      ATM CM                                             )

   1    0.00  1.96E+03  2.61E-03  3.26E+01  1.28E-02  1.48E-01  2.78E-02  1.82E+04  4.35E-05  2.61E-05  2.00E-06  2.49E-05



1  J    Z      CFC-11    CFC-12    CFC-13    CFC-14    CFC-22    CFC-113   CFC-114   CFC-115   CLONO2     HNO4     CHCL2F 
                CCL4      N2O5  
      (KM)    (                                                   ATM CM                                                )

   1    0.00  1.22E-05  2.09E-05  8.69E-14  8.69E-14  5.21E-06  1.65E-06  1.04E-06  8.69E-14  4.73E-07  1.08E-07  8.69E-14
              1.13E-05  5.06E-11


0SUMMARY OF THE GEOMETRY CALCULATION

          H1      =      1.000 KM
          H2      =      0.000 KM
          ANGLE   =    180.000 DEG
          RANGE   =      1.000 KM
          BETA    =      0.000 DEG
          PHI     =      0.000 DEG
          HMIN    =      0.000 KM
          BENDING =      0.000 DEG
          LEN     =          0




1EQUIVALENT SEA LEVEL TOTAL ABSORBER AMOUNTS

                 HNO3      O3 UV       CNTMSLF1    CNTMSLF2   CNTMFRN
               (ATM CM)   (ATM CM)     (MOL CM-2)  (MOL CM-2)  (MOL CM-2)  (MOL CM-2)

             4.751E-06   2.612E-03   1.137E+21  -2.328E+19   4.876E+22


              N2 CONT    MOL SCAT       AER 1       AER 2       AER 3       AER 4     CIRRUS      MEAN RH
                                                                                                  (PRCNT)

             6.951E-01   8.698E-01   7.700E-01   0.000E+00   0.000E+00   0.000E+00   0.000E+00       74.19


                 H2O        O3          CO2         CO          CH4         N2O          O2
               (                                        ATM CM                            )

             1.965E+03   2.612E-03   3.260E+01   1.282E-02   1.478E-01   2.782E-02   1.817E+04

                 NH3        NO          NO2         SO2
                 (               ATM CM               )

             4.346E-05   2.608E-05   1.999E-06   2.495E-05

             CFC-11      CFC-12      CFC-13      CFC-14      CFC-22      CFC-113     CFC-114
                 (                                      ATM CM                            )

             1.217E-05   2.086E-05   8.693E-14   8.693E-14   5.213E-06   1.652E-06   1.043E-06

             CFC-115     CLONO2       HNO4       CHCL2F       CCL4        N2O5  
                 (                                      ATM CM                            )

             8.693E-14   4.727E-07   1.083E-07   8.693E-14   1.130E-05   5.057E-11
1                                             RADIANCE(WATTS/CM2-STER-XXX)
0  FREQ   WAVLEN    PATH THERMAL      SURFACE EMISSION    SURFACE REFLECTED     TOTAL RADIANCE   INTEGRAL    TOTAL
  (CM-1) (MICRN)    (CM-1)   (MICRN)    (CM-1)   (MICRN)    (CM-1)   (MICRN)    (CM-1)   (MICRN)    (CM-1)   TRANS

    100. 100.000  1.89E-06  1.89E-06  0.00E+00  0.00E+00  0.00E+00  0.00E+00  1.89E-06  1.89E-06  1.89E-06  0.00000
    102.  98.039  1.95E-06  2.03E-06  0.00E+00  0.00E+00  0.00E+00  0.00E+00  1.95E-06  2.03E-06  5.79E-06  0.00000
    104.  96.154  2.02E-06  2.18E-06  0.00E+00  0.00E+00  0.00E+00  0.00E+00  2.02E-06  2.18E-06  9.83E-06  0.00000
    106.  94.340  2.09E-06  2.34E-06  0.00E+00  0.00E+00  0.00E+00  0.00E+00  2.09E-06  2.34E-06  1.40E-05  0.00000
    108.  92.593  2.15E-06  2.51E-06  0.00E+00  0.00E+00  0.00E+00  0.00E+00  2.15E-06  2.51E-06  1.83E-05  0.00000
    110.  90.909  2.22E-06  2.69E-06  0.00E+00  0.00E+00  0.00E+00  0.00E+00  2.22E-06  2.69E-06  2.28E-05  0.00000
    112.  89.286  2.29E-06  2.88E-06  0.00E+00  0.00E+00  0.00E+00  0.00E+00  2.29E-06  2.88E-06  2.73E-05  0.00000
    114.  87.719  2.36E-06  3.07E-06  0.00E+00  0.00E+00  0.00E+00  0.00E+00  2.36E-06  3.07E-06  3.21E-05  0.00000
    116.  86.207  2.43E-06  3.27E-06  0.00E+00  0.00E+00  0.00E+00  0.00E+00  2.43E-06  3.27E-06  3.69E-05  0.00000
    118.  84.746  2.50E-06  3.49E-06  0.00E+00  0.00E+00  0.00E+00  0.00E+00  2.50E-06  3.49E-06  4.19E-05  0.00000
    120.  83.333  2.58E-06  3.71E-06  0.00E+00  0.00E+00  0.00E+00  0.00E+00  2.58E-06  3.71E-06  4.71E-05  0.00000
    122.  81.967  2.65E-06  3.94E-06  0.00E+00  0.00E+00  0.00E+00  0.00E+00  2.65E-06  3.94E-06  5.24E-05  0.00000
    124.  80.645  2.72E-06  4.18E-06  0.00E+00  0.00E+00  0.00E+00  0.00E+00  2.72E-06  4.18E-06  5.78E-05  0.00000
    126.  79.365  2.79E-06  4.44E-06  0.00E+00  0.00E+00  0.00E+00  0.00E+00  2.79E-06  4.44E-06  6.34E-05  0.00000
    128.  78.125  2.87E-06  4.70E-06  0.00E+00  0.00E+00  0.00E+00  0.00E+00  2.87E-06  4.70E-06  6.92E-05  0.00000
    130.  76.923  2.94E-06  4.97E-06  0.00E+00  0.00E+00  0.00E+00  0.00E+00  2.94E-06  4.97E-06  7.50E-05  0.00000
    132.  75.758  3.02E-06  5.26E-06  0.00E+00  0.00E+00  0.00E+00  0.00E+00  3.02E-06  5.26E-06  8.11E-05  0.00000
    134.  74.627  3.09E-06  5.55E-06  0.00E+00  0.00E+00  0.00E+00  0.00E+00  3.09E-06  5.55E-06  8.73E-05  0.00000
    136.  73.529  3.17E-06  5.86E-06  0.00E+00  0.00E+00  0.00E+00  0.00E+00  3.17E-06  5.86E-06  9.36E-05  0.00000
    138.  72.464  3.24E-06  6.18E-06  0.00E+00  0.00E+00  0.00E+00  0.00E+00  3.24E-06  6.18E-06  1.00E-04  0.00000
    140.  71.429  3.32E-06  6.51E-06  0.00E+00  0.00E+00  0.00E+00  0.00E+00  3.32E-06  6.51E-06  1.07E-04  0.00000
    142.  70.423  3.40E-06  6.85E-06  0.00E+00  0.00E+00  0.00E+00  0.00E+00  3.40E-06  6.85E-06  1.14E-04  0.00000
    144.  69.444  3.48E-06  7.21E-06  0.00E+00  0.00E+00  0.00E+00  0.00E+00  3.48E-06  7.21E-06  1.20E-04  0.00000
    146.  68.493  3.55E-06  7.58E-06  0.00E+00  0.00E+00  0.00E+00  0.00E+00  3.55E-06  7.58E-06  1.28E-04  0.00000
    148.  67.568  3.63E-06  7.96E-06  0.00E+00  0.00E+00  0.00E+00  0.00E+00  3.63E-06  7.96E-06  1.35E-04  0.00000
    150.  66.667  3.71E-06  8.35E-06  0.00E+00  0.00E+00  0.00E+00  0.00E+00  3.71E-06  8.35E-06  1.42E-04  0.00000
    152.  65.789  3.79E-06  8.75E-06  0.00E+00  0.00E+00  0.00E+00  0.00E+00  3.79E-06  8.75E-06  1.50E-04  0.00000
    154.  64.935  3.87E-06  9.17E-06  0.00E+00  0.00E+00  0.00E+00  0.00E+00  3.87E-06  9.17E-06  1.58E-04  0.00000
    156.  64.103  3.95E-06  9.61E-06  0.00E+00  0.00E+00  0.00E+00  0.00E+00  3.95E-06  9.61E-06  1.65E-04  0.00000
    158.  63.291  4.03E-06  1.01E-05  0.00E+00  0.00E+00  0.00E+00  0.00E+00  4.03E-06  1.01E-05  1.74E-04  0.00000
    160.  62.500  4.11E-06  1.05E-05  0.00E+00  0.00E+00  0.00E+00  0.00E+00  4.11E-06  1.05E-05  1.82E-04  0.00000
    162.  61.728  4.19E-06  1.10E-05  0.00E+00  0.00E+00  0.00E+00  0.00E+00  4.19E-06  1.10E-05  1.90E-04  0.00000
    164.  60.976  4.27E-06  1.15E-05  0.00E+00  0.00E+00  0.00E+00  0.00E+00  4.27E-06  1.15E-05  1.99E-04  0.00000
    166.  60.241  4.35E-06  1.20E-05  0.00E+00  0.00E+00  0.00E+00  0.00E+00  4.35E-06  1.20E-05  2.07E-04  0.00000
    168.  59.524  4.43E-06  1.25E-05  0.00E+00  0.00E+00  0.00E+00  0.00E+00  4.43E-06  1.25E-05  2.16E-04  0.00000
    170.  58.824  4.51E-06  1.30E-05  0.00E+00  0.00E+00  0.00E+00  0.00E+00  4.51E-06  1.30E-05  2.25E-04  0.00000
    172.  58.140  4.59E-06  1.36E-05  0.00E+00  0.00E+00  0.00E+00  0.00E+00  4.59E-06  1.36E-05  2.34E-04  0.00000
    174.  57.471  4.67E-06  1.41E-05  0.00E+00  0.00E+00  0.00E+00  0.00E+00  4.67E-06  1.41E-05  2.44E-04  0.00000
    176.  56.818  4.75E-06  1.47E-05  0.00E+00  0.00E+00  0.00E+00  0.00E+00  4.75E-06  1.47E-05  2.53E-04  0.00000
    178.  56.180  4.83E-06  1.53E-05  0.00E+00  0.00E+00  0.00E+00  0.00E+00  4.83E-06  1.53E-05  2.63E-04  0.00000
    180.  55.556  4.92E-06  1.59E-05  0.00E+00  0.00E+00  0.00E+00  0.00E+00  4.92E-06  1.59E-05  2.73E-04  0.00000
    182.  54.945  5.00E-06  1.66E-05  0.00E+00  0.00E+00  0.00E+00  0.00E+00  5.00E-06  1.66E-05  2.83E-04  0.00000
    184.  54.348  5.08E-06  1.72E-05  0.00E+00  0.00E+00  0.00E+00  0.00E+00  5.08E-06  1.72E-05  2.93E-04  0.00000
    186.  53.763  5.16E-06  1.79E-05  0.00E+00  0.00E+00  0.00E+00  0.00E+00  5.16E-06  1.79E-05  3.03E-04  0.00000
    188.  53.191  5.24E-06  1.85E-05  0.00E+00  0.00E+00  0.00E+00  0.00E+00  5.24E-06  1.85E-05  3.14E-04  0.00000
    190.  52.632  5.33E-06  1.92E-05  0.00E+00  0.00E+00  0.00E+00  0.00E+00  5.33E-06  1.92E-05  3.24E-04  0.00000
    192.  52.083  5.41E-06  1.99E-05  0.00E+00  0.00E+00  0.00E+00  0.00E+00  5.41E-06  1.99E-05  3.35E-04  0.00000
    194.  51.546  5.49E-06  2.07E-05  0.00E+00  0.00E+00  0.00E+00  0.00E+00  5.49E-06  2.07E-05  3.46E-04  0.00000
    196.  51.020  5.57E-06  2.14E-05  0.00E+00  0.00E+00  0.00E+00  0.00E+00  5.57E-06  2.14E-05  3.57E-04  0.00000
    198.  50.505  5.65E-06  2.22E-05  0.00E+00  0.00E+00  0.00E+00  0.00E+00  5.65E-06  2.22E-05  3.69E-04  0.00000
1                                             RADIANCE(WATTS/CM2-STER-XXX)
0  FREQ   WAVLEN    PATH THERMAL      SURFACE EMISSION    SURFACE REFLECTED     TOTAL RADIANCE   INTEGRAL    TOTAL
  (CM-1) (MICRN)    (CM-1)   (MICRN)    (CM-1)   (MICRN)    (CM-1)   (MICRN)    (CM-1)   (MICRN)    (CM-1)   TRANS

    200.  50.000  5.74E-06  2.29E-05  0.00E+00  0.00E+00  0.00E+00  0.00E+00  5.74E-06  2.29E-05  3.80E-04  0.00000
    202.  49.505  5.82E-06  2.37E-05  0.00E+00  0.00E+00  0.00E+00  0.00E+00  5.82E-06  2.37E-05  3.92E-04  0.00000
    204.  49.020  5.90E-06  2.46E-05  0.00E+00  0.00E+00  0.00E+00  0.00E+00  5.90E-06  2.46E-05  4.04E-04  0.00000
    206.  48.544  5.98E-06  2.54E-05  0.00E+00  0.00E+00  0.00E+00  0.00E+00  5.98E-06  2.54E-05  4.16E-04  0.00000
    208.  48.077  6.07E-06  2.62E-05  0.00E+00  0.00E+00  0.00E+00  0.00E+00  6.07E-06  2.62E-05  4.28E-04  0.00000
    210.  47.619  6.15E-06  2.71E-05  0.00E+00  0.00E+00  0.00E+00  0.00E+00  6.15E-06  2.71E-05  4.40E-04  0.00000
    212.  47.170  6.23E-06  2.80E-05  0.00E+00  0.00E+00  0.00E+00  0.00E+00  6.23E-06  2.80E-05  4.52E-04  0.00000
    214.  46.729  6.31E-06  2.89E-05  0.00E+00  0.00E+00  0.00E+00  0.00E+00  6.31E-06  2.89E-05  4.65E-04  0.00000
    216.  46.296  6.39E-06  2.98E-05  0.00E+00  0.00E+00  0.00E+00  0.00E+00  6.39E-06  2.98E-05  4.78E-04  0.00000
    218.  45.872  6.47E-06  3.08E-05  0.00E+00  0.00E+00  0.00E+00  0.00E+00  6.47E-06  3.08E-05  4.91E-04  0.00000
    220.  45.455  6.56E-06  3.17E-05  0.00E+00  0.00E+00  0.00E+00  0.00E+00  6.56E-06  3.17E-05  5.04E-04  0.00000
    222.  45.045  6.64E-06  3.27E-05  0.00E+00  0.00E+00  0.00E+00  0.00E+00  6.64E-06  3.27E-05  5.17E-04  0.00000
    224.  44.643  6.72E-06  3.37E-05  0.00E+00  0.00E+00  0.00E+00  0.00E+00  6.72E-06  3.37E-05  5.31E-04  0.00000
    226.  44.248  6.80E-06  3.47E-05  0.00E+00  0.00E+00  0.00E+00  0.00E+00  6.80E-06  3.47E-05  5.44E-04  0.00000
    228.  43.860  6.88E-06  3.58E-05  0.00E+00  0.00E+00  0.00E+00  0.00E+00  6.88E-06  3.58E-05  5.58E-04  0.00000
    230.  43.478  6.96E-06  3.68E-05  0.00E+00  0.00E+00  0.00E+00  0.00E+00  6.96E-06  3.68E-05  5.72E-04  0.00000
    232.  43.103  7.04E-06  3.79E-05  0.00E+00  0.00E+00  0.00E+00  0.00E+00  7.04E-06  3.79E-05  5.86E-04  0.00000
    234.  42.735  7.12E-06  3.90E-05  0.00E+00  0.00E+00  0.00E+00  0.00E+00  7.12E-06  3.90E-05  6.00E-04  0.00000
    236.  42.373  7.20E-06  4.01E-05  0.00E+00  0.00E+00  0.00E+00  0.00E+00  7.20E-06  4.01E-05  6.15E-04  0.00000
    238.  42.017  7.28E-06  4.13E-05  0.00E+00  0.00E+00  0.00E+00  0.00E+00  7.28E-06  4.13E-05  6.29E-04  0.00000
    240.  41.667  7.36E-06  4.24E-05  0.00E+00  0.00E+00  0.00E+00  0.00E+00  7.36E-06  4.24E-05  6.44E-04  0.00000
    242.  41.322  7.44E-06  4.36E-05  0.00E+00  0.00E+00  0.00E+00  0.00E+00  7.44E-06  4.36E-05  6.59E-04  0.00000
    244.  40.984  7.52E-06  4.48E-05  0.00E+00  0.00E+00  0.00E+00  0.00E+00  7.52E-06  4.48E-05  6.74E-04  0.00000
    246.  40.650  7.60E-06  4.60E-05  0.00E+00  0.00E+00  0.00E+00  0.00E+00  7.60E-06  4.60E-05  6.89E-04  0.00000
    248.  40.323  7.68E-06  4.72E-05  0.00E+00  0.00E+00  0.00E+00  0.00E+00  7.68E-06  4.72E-05  7.04E-04  0.00000
    250.  40.000  7.76E-06  4.85E-05  0.00E+00  0.00E+00  0.00E+00  0.00E+00  7.76E-06  4.85E-05  7.20E-04  0.00000
    252.  39.683  7.84E-06  4.98E-05  0.00E+00  0.00E+00  0.00E+00  0.00E+00  7.84E-06  4.98E-05  7.36E-04  0.00000
    254.  39.370  7.92E-06  5.11E-05  0.00E+00  0.00E+00  0.00E+00  0.00E+00  7.92E-06  5.11E-05  7.51E-04  0.00000
    256.  39.063  7.99E-06  5.24E-05  0.00E+00  0.00E+00  0.00E+00  0.00E+00  7.99E-06  5.24E-05  7.67E-04  0.00000
    258.  38.760  8.07E-06  5.37E-05  0.00E+00  0.00E+00  0.00E+00  0.00E+00  8.07E-06  5.37E-05  7.84E-04  0.00000
    260.  38.462  8.15E-06  5.51E-05  0.00E+00  0.00E+00  0.00E+00  0.00E+00  8.15E-06  5.51E-05  8.00E-04  0.00000
    262.  38.168  8.23E-06  5.65E-05  0.00E+00  0.00E+00  0.00E+00  0.00E+00  8.23E-06  5.65E-05  8.16E-04  0.00000
    264.  37.879  8.30E-06  5.79E-05  0.00E+00  0.00E+00  0.00E+00  0.00E+00  8.30E-06  5.79E-05  8.33E-04  0.00000
    266.  37.594  8.38E-06  5.93E-05  0.00E+00  0.00E+00  0.00E+00  0.00E+00  8.38E-06  5.93E-05  8.50E-04  0.00000
    268.  37.313  8.46E-06  6.07E-05  0.00E+00  0.00E+00  0.00E+00  0.00E+00  8.46E-06  6.07E-05  8.67E-04  0.00000
    270.  37.037  8.53E-06  6.22E-05  0.00E+00  0.00E+00  0.00E+00  0.00E+00  8.53E-06  6.22E-05  8.84E-04  0.00000
    272.  36.765  8.61E-06  6.37E-05  0.00E+00  0.00E+00  0.00E+00  0.00E+00  8.61E-06  6.37E-05  9.01E-04  0.00000
    274.  36.496  8.68E-06  6.52E-05  0.00E+00  0.00E+00  0.00E+00  0.00E+00  8.68E-06  6.52E-05  9.18E-04  0.00000
    276.  36.232  8.76E-06  6.67E-05  0.00E+00  0.00E+00  0.00E+00  0.00E+00  8.76E-06  6.67E-05  9.36E-04  0.00000
    278.  35.971  8.83E-06  6.83E-05  0.00E+00  0.00E+00  0.00E+00  0.00E+00  8.83E-06  6.83E-05  9.53E-04  0.00000
    280.  35.714  8.91E-06  6.98E-05  0.00E+00  0.00E+00  0.00E+00  0.00E+00  8.91E-06  6.98E-05  9.71E-04  0.00000
    282.  35.461  8.98E-06  7.14E-05  0.00E+00  0.00E+00  0.00E+00  0.00E+00  8.98E-06  7.14E-05  9.89E-04  0.00000
    284.  35.211  9.05E-06  7.30E-05  0.00E+00  0.00E+00  0.00E+00  0.00E+00  9.05E-06  7.30E-05  1.01E-03  0.00000
    286.  34.965  9.13E-06  7.46E-05  0.00E+00  0.00E+00  0.00E+00  0.00E+00  9.13E-06  7.46E-05  1.03E-03  0.00000
    288.  34.722  9.20E-06  7.63E-05  0.00E+00  0.00E+00  0.00E+00  0.00E+00  9.20E-06  7.63E-05  1.04E-03  0.00000
    290.  34.483  9.27E-06  7.80E-05  0.00E+00  0.00E+00  0.00E+00  0.00E+00  9.27E-06  7.80E-05  1.06E-03  0.00000
    292.  34.247  9.34E-06  7.97E-05  0.00E+00  0.00E+00  0.00E+00  0.00E+00  9.34E-06  7.97E-05  1.08E-03  0.00000
    294.  34.014  9.41E-06  8.14E-05  0.00E+00  0.00E+00  0.00E+00  0.00E+00  9.41E-06  8.14E-05  1.10E-03  0.00000
    296.  33.784  9.49E-06  8.31E-05  0.00E+00  0.00E+00  0.00E+00  0.00E+00  9.49E-06  8.31E-05  1.12E-03  0.00000
    298.  33.557  9.56E-06  8.49E-05  0.00E+00  0.00E+00  0.00E+00  0.00E+00  9.56E-06  8.49E-05  1.14E-03  0.00000
1                                             RADIANCE(WATTS/CM2-STER-XXX)
0  FREQ   WAVLEN    PATH THERMAL      SURFACE EMISSION    SURFACE REFLECTED     TOTAL RADIANCE   INTEGRAL    TOTAL
  (CM-1) (MICRN)    (CM-1)   (MICRN)    (CM-1)   (MICRN)    (CM-1)   (MICRN)    (CM-1)   (MICRN)    (CM-1)   TRANS

    300.  33.333  9.63E-06  8.66E-05  0.00E+00  0.00E+00  0.00E+00  0.00E+00  9.63E-06  8.66E-05  1.16E-03  0.00000
    302.  33.113  9.70E-06  8.84E-05  0.00E+00  0.00E+00  0.00E+00  0.00E+00  9.70E-06  8.84E-05  1.18E-03  0.00000
    304.  32.895  9.77E-06  9.03E-05  0.00E+00  0.00E+00  0.00E+00  0.00E+00  9.77E-06  9.03E-05  1.20E-03  0.00000
    306.  32.680  9.83E-06  9.21E-05  0.00E+00  0.00E+00  0.00E+00  0.00E+00  9.83E-06  9.21E-05  1.22E-03  0.00000
    308.  32.468  9.90E-06  9.39E-05  0.00E+00  0.00E+00  0.00E+00  0.00E+00  9.90E-06  9.39E-05  1.24E-03  0.00000
    310.  32.258  9.97E-06  9.58E-05  0.00E+00  0.00E+00  0.00E+00  0.00E+00  9.97E-06  9.58E-05  1.26E-03  0.00000
    312.  32.051  1.00E-05  9.77E-05  0.00E+00  0.00E+00  0.00E+00  0.00E+00  1.00E-05  9.77E-05  1.28E-03  0.00000
    314.  31.847  1.01E-05  9.96E-05  0.00E+00  0.00E+00  0.00E+00  0.00E+00  1.01E-05  9.96E-05  1.30E-03  0.00000
    316.  31.646  1.02E-05  1.02E-04  0.00E+00  0.00E+00  0.00E+00  0.00E+00  1.02E-05  1.02E-04  1.32E-03  0.00000
    318.  31.447  1.02E-05  1.04E-04  0.00E+00  0.00E+00  0.00E+00  0.00E+00  1.02E-05  1.04E-04  1.34E-03  0.00000
    320.  31.250  1.03E-05  1.06E-04  0.00E+00  0.00E+00  0.00E+00  0.00E+00  1.03E-05  1.06E-04  1.36E-03  0.00000
    322.  31.056  1.04E-05  1.08E-04  0.00E+00  0.00E+00  0.00E+00  0.00E+00  1.04E-05  1.08E-04  1.38E-03  0.00000
    324.  30.864  1.04E-05  1.10E-04  0.00E+00  0.00E+00  0.00E+00  0.00E+00  1.04E-05  1.10E-04  1.40E-03  0.00000
    326.  30.675  1.05E-05  1.12E-04  0.00E+00  0.00E+00  0.00E+00  0.00E+00  1.05E-05  1.12E-04  1.42E-03  0.00000
    328.  30.488  1.06E-05  1.14E-04  0.00E+00  0.00E+00  0.00E+00  0.00E+00  1.06E-05  1.14E-04  1.44E-03  0.00000
    330.  30.303  1.06E-05  1.16E-04  0.00E+00  0.00E+00  0.00E+00  0.00E+00  1.06E-05  1.16E-04  1.46E-03  0.00000
    332.  30.120  1.07E-05  1.18E-04  0.00E+00  0.00E+00  0.00E+00  0.00E+00  1.07E-05  1.18E-04  1.48E-03  0.00000
    334.  29.940  1.08E-05  1.20E-04  0.00E+00  0.00E+00  0.00E+00  0.00E+00  1.08E-05  1.20E-04  1.51E-03  0.00000
    336.  29.762  1.08E-05  1.22E-04  0.00E+00  0.00E+00  0.00E+00  0.00E+00  1.08E-05  1.22E-04  1.53E-03  0.00000
    338.  29.586  1.09E-05  1.24E-04  0.00E+00  0.00E+00  0.00E+00  0.00E+00  1.09E-05  1.24E-04  1.55E-03  0.00000
    340.  29.412  1.09E-05  1.26E-04  2.21E-42  2.56E-41  0.00E+00  0.00E+00  1.09E-05  1.26E-04  1.57E-03  0.00000
    342.  29.240  1.10E-05  1.29E-04  2.54E-42  2.97E-41  0.00E+00  0.00E+00  1.10E-05  1.29E-04  1.59E-03  0.00000
    344.  29.070  1.11E-05  1.31E-04  3.32E-43  3.93E-42  0.00E+00  0.00E+00  1.11E-05  1.31E-04  1.61E-03  0.00000
    346.  28.902  1.11E-05  1.33E-04  0.00E+00  0.00E+00  0.00E+00  0.00E+00  1.11E-05  1.33E-04  1.64E-03  0.00000
    348.  28.736  1.12E-05  1.35E-04  0.00E+00  0.00E+00  0.00E+00  0.00E+00  1.12E-05  1.35E-04  1.66E-03  0.00000
    350.  28.571  1.12E-05  1.38E-04  0.00E+00  0.00E+00  0.00E+00  0.00E+00  1.12E-05  1.38E-04  1.68E-03  0.00000
    352.  28.409  1.13E-05  1.40E-04  0.00E+00  0.00E+00  0.00E+00  0.00E+00  1.13E-05  1.40E-04  1.70E-03  0.00000
    354.  28.249  1.14E-05  1.42E-04  0.00E+00  0.00E+00  0.00E+00  0.00E+00  1.14E-05  1.42E-04  1.73E-03  0.00000
    356.  28.090  1.14E-05  1.45E-04  0.00E+00  0.00E+00  0.00E+00  0.00E+00  1.14E-05  1.45E-04  1.75E-03  0.00000
    358.  27.933  1.15E-05  1.47E-04  0.00E+00  0.00E+00  0.00E+00  0.00E+00  1.15E-05  1.47E-04  1.77E-03  0.00000
    360.  27.778  1.15E-05  1.49E-04  6.92E-33  8.97E-32  0.00E+00  0.00E+00  1.15E-05  1.49E-04  1.80E-03  0.00000
    362.  27.624  1.16E-05  1.52E-04  1.95E-28  2.55E-27  0.00E+00  0.00E+00  1.16E-05  1.52E-04  1.82E-03  0.00000
    364.  27.473  1.16E-05  1.54E-04  1.49E-25  1.97E-24  0.00E+00  0.00E+00  1.16E-05  1.54E-04  1.84E-03  0.00000
    366.  27.322  1.17E-05  1.57E-04  9.15E-25  1.23E-23  0.00E+00  0.00E+00  1.17E-05  1.57E-04  1.87E-03  0.00000
    368.  27.174  1.17E-05  1.59E-04  2.67E-26  3.61E-25  0.00E+00  0.00E+00  1.17E-05  1.59E-04  1.89E-03  0.00000
    370.  27.027  1.18E-05  1.61E-04  1.15E-34  1.58E-33  0.00E+00  0.00E+00  1.18E-05  1.61E-04  1.91E-03  0.00000
    372.  26.882  1.18E-05  1.64E-04  1.55E-36  2.15E-35  0.00E+00  0.00E+00  1.18E-05  1.64E-04  1.94E-03  0.00000
    374.  26.738  1.19E-05  1.66E-04  0.00E+00  0.00E+00  0.00E+00  0.00E+00  1.19E-05  1.66E-04  1.96E-03  0.00000
    376.  26.596  1.20E-05  1.69E-04  0.00E+00  0.00E+00  0.00E+00  0.00E+00  1.20E-05  1.69E-04  1.98E-03  0.00000
    378.  26.455  1.20E-05  1.71E-04  1.61E-28  2.30E-27  0.00E+00  0.00E+00  1.20E-05  1.71E-04  2.01E-03  0.00000
    380.  26.316  1.21E-05  1.74E-04  5.52E-24  7.97E-23  0.00E+00  0.00E+00  1.21E-05  1.74E-04  2.03E-03  0.00000
    382.  26.178  1.21E-05  1.77E-04  6.17E-24  9.01E-23  0.00E+00  0.00E+00  1.21E-05  1.77E-04  2.06E-03  0.00000
    384.  26.042  1.22E-05  1.79E-04  8.97E-44  1.32E-42  0.00E+00  0.00E+00  1.22E-05  1.79E-04  2.08E-03  0.00000
    386.  25.907  1.22E-05  1.82E-04  2.29E-26  3.42E-25  0.00E+00  0.00E+00  1.22E-05  1.82E-04  2.11E-03  0.00000
    388.  25.773  1.23E-05  1.85E-04  1.38E-19  2.08E-18  0.00E+00  0.00E+00  1.23E-05  1.85E-04  2.13E-03  0.00000
    390.  25.641  1.23E-05  1.87E-04  3.11E-19  4.73E-18  0.00E+00  0.00E+00  1.23E-05  1.87E-04  2.15E-03  0.00000
    392.  25.510  1.24E-05  1.90E-04  4.66E-20  7.15E-19  0.00E+00  0.00E+00  1.24E-05  1.90E-04  2.18E-03  0.00000
    394.  25.381  1.24E-05  1.92E-04  5.52E-27  8.56E-26  0.00E+00  0.00E+00  1.24E-05  1.92E-04  2.20E-03  0.00000
    396.  25.253  1.24E-05  1.95E-04  0.00E+00  0.00E+00  0.00E+00  0.00E+00  1.24E-05  1.95E-04  2.23E-03  0.00000
    398.  25.126  1.25E-05  1.98E-04  0.00E+00  0.00E+00  0.00E+00  0.00E+00  1.25E-05  1.98E-04  2.25E-03  0.00000
1                                             RADIANCE(WATTS/CM2-STER-XXX)
0  FREQ   WAVLEN    PATH THERMAL      SURFACE EMISSION    SURFACE REFLECTED     TOTAL RADIANCE   INTEGRAL    TOTAL
  (CM-1) (MICRN)    (CM-1)   (MICRN)    (CM-1)   (MICRN)    (CM-1)   (MICRN)    (CM-1)   (MICRN)    (CM-1)   TRANS

    400.  25.000  1.25E-05  2.01E-04  5.61E-45  8.97E-44  0.00E+00  0.00E+00  1.25E-05  2.01E-04  2.28E-03  0.00000
    402.  24.876  1.26E-05  2.03E-04  2.36E-18  3.82E-17  0.00E+00  0.00E+00  1.26E-05  2.03E-04  2.30E-03  0.00000
    404.  24.752  1.26E-05  2.06E-04  1.93E-16  3.15E-15  0.00E+00  0.00E+00  1.26E-05  2.06E-04  2.33E-03  0.00000
    406.  24.631  1.27E-05  2.09E-04  9.12E-15  1.50E-13  0.00E+00  0.00E+00  1.27E-05  2.09E-04  2.35E-03  0.00000
    408.  24.510  1.27E-05  2.12E-04  5.98E-14  9.95E-13  0.00E+00  0.00E+00  1.27E-05  2.12E-04  2.38E-03  0.00000
    410.  24.390  1.28E-05  2.15E-04  6.69E-14  1.12E-12  0.00E+00  0.00E+00  1.28E-05  2.15E-04  2.41E-03  0.00000
    412.  24.272  1.28E-05  2.18E-04  4.61E-14  7.83E-13  0.00E+00  0.00E+00  1.28E-05  2.18E-04  2.43E-03  0.00000
    414.  24.155  1.29E-05  2.20E-04  4.11E-15  7.04E-14  0.00E+00  0.00E+00  1.29E-05  2.20E-04  2.46E-03  0.00000
    416.  24.038  1.29E-05  2.23E-04  9.18E-20  1.59E-18  0.00E+00  0.00E+00  1.29E-05  2.23E-04  2.48E-03  0.00000
    418.  23.923  1.29E-05  2.26E-04  4.42E-35  7.73E-34  0.00E+00  0.00E+00  1.29E-05  2.26E-04  2.51E-03  0.00000
    420.  23.810  1.30E-05  2.29E-04  2.49E-43  4.40E-42  0.00E+00  0.00E+00  1.30E-05  2.29E-04  2.53E-03  0.00000
    422.  23.697  1.30E-05  2.32E-04  2.68E-23  4.77E-22  0.00E+00  0.00E+00  1.30E-05  2.32E-04  2.56E-03  0.00000
    424.  23.585  1.30E-05  2.34E-04  3.91E-20  7.02E-19  0.00E+00  0.00E+00  1.30E-05  2.34E-04  2.59E-03  0.00000
    426.  23.474  1.31E-05  2.37E-04  9.40E-17  1.71E-15  0.00E+00  0.00E+00  1.31E-05  2.37E-04  2.61E-03  0.00000
    428.  23.364  1.31E-05  2.41E-04  3.72E-13  6.82E-12  0.00E+00  0.00E+00  1.31E-05  2.41E-04  2.64E-03  0.00000
    430.  23.256  1.32E-05  2.44E-04  2.13E-13  3.94E-12  0.00E+00  0.00E+00  1.32E-05  2.44E-04  2.67E-03  0.00000
    432.  23.148  1.32E-05  2.47E-04  4.88E-13  9.11E-12  0.00E+00  0.00E+00  1.32E-05  2.47E-04  2.69E-03  0.00000
    434.  23.041  1.33E-05  2.50E-04  4.77E-13  8.98E-12  0.00E+00  0.00E+00  1.33E-05  2.50E-04  2.72E-03  0.00000
    436.  22.936  1.33E-05  2.52E-04  2.64E-15  5.02E-14  0.00E+00  0.00E+00  1.33E-05  2.52E-04  2.74E-03  0.00000
    438.  22.831  1.33E-05  2.56E-04  2.47E-12  4.73E-11  0.00E+00  0.00E+00  1.33E-05  2.56E-04  2.77E-03  0.00000
    440.  22.727  1.34E-05  2.59E-04  2.19E-12  4.25E-11  0.00E+00  0.00E+00  1.34E-05  2.59E-04  2.80E-03  0.00000
    442.  22.624  1.34E-05  2.61E-04  7.68E-17  1.50E-15  0.00E+00  0.00E+00  1.34E-05  2.61E-04  2.82E-03  0.00000
    444.  22.523  1.34E-05  2.64E-04  1.70E-15  3.36E-14  0.00E+00  0.00E+00  1.34E-05  2.64E-04  2.85E-03  0.00000
    446.  22.422  1.34E-05  2.67E-04  1.30E-15  2.59E-14  0.00E+00  0.00E+00  1.34E-05  2.67E-04  2.88E-03  0.00000
    448.  22.321  1.35E-05  2.71E-04  1.21E-11  2.43E-10  0.00E+00  0.00E+00  1.35E-05  2.71E-04  2.91E-03  0.00000
    450.  22.222  1.35E-05  2.74E-04  1.39E-11  2.82E-10  0.00E+00  0.00E+00  1.35E-05  2.74E-04  2.93E-03  0.00000
    452.  22.124  1.35E-05  2.77E-04  2.16E-13  4.41E-12  0.00E+00  0.00E+00  1.35E-05  2.77E-04  2.96E-03  0.00000
    454.  22.026  1.36E-05  2.80E-04  4.41E-14  9.08E-13  0.00E+00  0.00E+00  1.36E-05  2.80E-04  2.99E-03  0.00000
    456.  21.930  1.36E-05  2.83E-04  6.45E-16  1.34E-14  0.00E+00  0.00E+00  1.36E-05  2.83E-04  3.01E-03  0.00000
    458.  21.834  1.36E-05  2.86E-04  2.45E-18  5.14E-17  0.00E+00  0.00E+00  1.36E-05  2.86E-04  3.04E-03  0.00000
    460.  21.739  1.37E-05  2.89E-04  4.85E-15  1.03E-13  0.00E+00  0.00E+00  1.37E-05  2.89E-04  3.07E-03  0.00000
    462.  21.645  1.37E-05  2.93E-04  2.67E-11  5.71E-10  0.00E+00  0.00E+00  1.37E-05  2.93E-04  3.10E-03  0.00000
    464.  21.552  1.38E-05  2.97E-04  3.95E-10  8.50E-09  0.00E+00  0.00E+00  1.38E-05  2.97E-04  3.12E-03  0.00003
    466.  21.459  1.38E-05  2.99E-04  2.87E-10  6.23E-09  0.00E+00  0.00E+00  1.38E-05  2.99E-04  3.15E-03  0.00002
    468.  21.368  1.38E-05  3.02E-04  1.56E-13  3.42E-12  0.00E+00  0.00E+00  1.38E-05  3.02E-04  3.18E-03  0.00000
    470.  21.277  1.38E-05  3.05E-04  8.66E-13  1.91E-11  0.00E+00  0.00E+00  1.38E-05  3.05E-04  3.21E-03  0.00000
    472.  21.186  1.38E-05  3.08E-04  1.03E-17  2.29E-16  0.00E+00  0.00E+00  1.38E-05  3.08E-04  3.23E-03  0.00000
    474.  21.097  1.39E-05  3.11E-04  5.87E-12  1.32E-10  0.00E+00  0.00E+00  1.39E-05  3.11E-04  3.26E-03  0.00000
    476.  21.008  1.39E-05  3.15E-04  5.34E-11  1.21E-09  0.00E+00  0.00E+00  1.39E-05  3.15E-04  3.29E-03  0.00000
    478.  20.921  1.40E-05  3.19E-04  3.62E-09  8.27E-08  0.00E+00  0.00E+00  1.40E-05  3.19E-04  3.32E-03  0.00025
    480.  20.833  1.40E-05  3.22E-04  2.86E-09  6.59E-08  0.00E+00  0.00E+00  1.40E-05  3.23E-04  3.35E-03  0.00020
    482.  20.747  1.40E-05  3.25E-04  9.65E-11  2.24E-09  0.00E+00  0.00E+00  1.40E-05  3.25E-04  3.37E-03  0.00001
    484.  20.661  1.40E-05  3.28E-04  3.63E-11  8.50E-10  0.00E+00  0.00E+00  1.40E-05  3.28E-04  3.40E-03  0.00000
    486.  20.576  1.40E-05  3.31E-04  5.89E-11  1.39E-09  0.00E+00  0.00E+00  1.40E-05  3.31E-04  3.43E-03  0.00000
    488.  20.492  1.41E-05  3.36E-04  7.44E-09  1.77E-07  0.00E+00  0.00E+00  1.41E-05  3.36E-04  3.46E-03  0.00052
    490.  20.408  1.41E-05  3.39E-04  4.40E-09  1.06E-07  0.00E+00  0.00E+00  1.41E-05  3.39E-04  3.49E-03  0.00031
    492.  20.325  1.41E-05  3.41E-04  9.63E-12  2.33E-10  0.00E+00  0.00E+00  1.41E-05  3.41E-04  3.51E-03  0.00000
    494.  20.243  1.41E-05  3.45E-04  3.55E-09  8.66E-08  0.00E+00  0.00E+00  1.41E-05  3.45E-04  3.54E-03  0.00024
    496.  20.161  1.42E-05  3.49E-04  3.11E-08  7.66E-07  0.00E+00  0.00E+00  1.42E-05  3.49E-04  3.57E-03  0.00215
    498.  20.080  1.42E-05  3.52E-04  3.39E-08  8.40E-07  0.00E+00  0.00E+00  1.42E-05  3.53E-04  3.60E-03  0.00233
1                                             RADIANCE(WATTS/CM2-STER-XXX)
0  FREQ   WAVLEN    PATH THERMAL      SURFACE EMISSION    SURFACE REFLECTED     TOTAL RADIANCE   INTEGRAL    TOTAL
  (CM-1) (MICRN)    (CM-1)   (MICRN)    (CM-1)   (MICRN)    (CM-1)   (MICRN)    (CM-1)   (MICRN)    (CM-1)   TRANS

    500.  20.000  1.42E-05  3.55E-04  6.07E-09  1.52E-07  0.00E+00  0.00E+00  1.42E-05  3.55E-04  3.63E-03  0.00042
    502.  19.920  1.42E-05  3.57E-04  1.85E-12  4.65E-11  0.00E+00  0.00E+00  1.42E-05  3.57E-04  3.66E-03  0.00000
    504.  19.841  1.42E-05  3.61E-04  3.20E-11  8.12E-10  0.00E+00  0.00E+00  1.42E-05  3.61E-04  3.68E-03  0.00000
    506.  19.763  1.42E-05  3.64E-04  6.76E-11  1.73E-09  0.00E+00  0.00E+00  1.42E-05  3.64E-04  3.71E-03  0.00000
    508.  19.685  1.43E-05  3.68E-04  2.33E-09  6.02E-08  0.00E+00  0.00E+00  1.43E-05  3.68E-04  3.74E-03  0.00016
    510.  19.608  1.43E-05  3.72E-04  2.55E-09  6.63E-08  0.00E+00  0.00E+00  1.43E-05  3.72E-04  3.77E-03  0.00017
    512.  19.531  1.43E-05  3.75E-04  1.32E-08  3.47E-07  0.00E+00  0.00E+00  1.43E-05  3.76E-04  3.80E-03  0.00090
    514.  19.455  1.43E-05  3.78E-04  1.22E-08  3.22E-07  0.00E+00  0.00E+00  1.43E-05  3.79E-04  3.83E-03  0.00083
    516.  19.380  1.43E-05  3.80E-04  3.80E-11  1.01E-09  0.00E+00  0.00E+00  1.43E-05  3.80E-04  3.86E-03  0.00000
    518.  19.305  1.43E-05  3.83E-04  1.00E-14  2.69E-13  0.00E+00  0.00E+00  1.43E-05  3.83E-04  3.88E-03  0.00000
    520.  19.231  1.43E-05  3.87E-04  7.99E-11  2.16E-09  0.00E+00  0.00E+00  1.43E-05  3.87E-04  3.91E-03  0.00001
    522.  19.157  1.44E-05  3.92E-04  1.67E-08  4.55E-07  0.00E+00  0.00E+00  1.44E-05  3.92E-04  3.94E-03  0.00113
    524.  19.084  1.44E-05  3.95E-04  7.41E-09  2.04E-07  0.00E+00  0.00E+00  1.44E-05  3.95E-04  3.97E-03  0.00050
    526.  19.011  1.44E-05  3.97E-04  5.51E-11  1.52E-09  0.00E+00  0.00E+00  1.44E-05  3.97E-04  4.00E-03  0.00000
    528.  18.939  1.44E-05  4.02E-04  3.86E-08  1.08E-06  0.00E+00  0.00E+00  1.44E-05  4.03E-04  4.03E-03  0.00261
    530.  18.868  1.43E-05  4.02E-04  1.86E-07  5.22E-06  0.00E+00  0.00E+00  1.45E-05  4.07E-04  4.06E-03  0.01254
    532.  18.797  1.43E-05  4.04E-04  2.55E-07  7.22E-06  0.00E+00  0.00E+00  1.45E-05  4.11E-04  4.09E-03  0.01723
    534.  18.727  1.44E-05  4.11E-04  8.34E-08  2.38E-06  0.00E+00  0.00E+00  1.45E-05  4.14E-04  4.12E-03  0.00563
    536.  18.657  1.45E-05  4.15E-04  2.38E-08  6.83E-07  0.00E+00  0.00E+00  1.45E-05  4.16E-04  4.14E-03  0.00160
    538.  18.587  1.44E-05  4.16E-04  1.71E-07  4.94E-06  0.00E+00  0.00E+00  1.45E-05  4.21E-04  4.17E-03  0.01148
    540.  18.519  1.44E-05  4.19E-04  1.73E-07  5.06E-06  0.00E+00  0.00E+00  1.46E-05  4.24E-04  4.20E-03  0.01167
    542.  18.450  1.44E-05  4.24E-04  1.17E-07  3.44E-06  0.00E+00  0.00E+00  1.46E-05  4.27E-04  4.23E-03  0.00786
    544.  18.382  1.45E-05  4.28E-04  8.11E-08  2.40E-06  0.00E+00  0.00E+00  1.45E-05  4.30E-04  4.26E-03  0.00545
    546.  18.315  1.45E-05  4.31E-04  2.23E-10  6.65E-09  0.00E+00  0.00E+00  1.45E-05  4.31E-04  4.29E-03  0.00001
    548.  18.248  1.45E-05  4.35E-04  2.05E-08  6.17E-07  0.00E+00  0.00E+00  1.45E-05  4.36E-04  4.32E-03  0.00138
    550.  18.182  1.45E-05  4.39E-04  2.21E-08  6.67E-07  0.00E+00  0.00E+00  1.45E-05  4.40E-04  4.35E-03  0.00148
    552.  18.116  1.44E-05  4.38E-04  2.02E-07  6.16E-06  0.00E+00  0.00E+00  1.46E-05  4.45E-04  4.38E-03  0.01354
    554.  18.051  1.45E-05  4.44E-04  1.18E-07  3.61E-06  0.00E+00  0.00E+00  1.46E-05  4.48E-04  4.41E-03  0.00788
    556.  17.986  1.44E-05  4.45E-04  2.24E-07  6.92E-06  0.00E+00  0.00E+00  1.46E-05  4.52E-04  4.44E-03  0.01499
    558.  17.921  1.43E-05  4.45E-04  3.43E-07  1.07E-05  0.00E+00  0.00E+00  1.46E-05  4.56E-04  4.46E-03  0.02298
    560.  17.857  1.41E-05  4.41E-04  5.97E-07  1.87E-05  0.00E+00  0.00E+00  1.47E-05  4.60E-04  4.49E-03  0.03991
    562.  17.794  1.42E-05  4.48E-04  4.66E-07  1.47E-05  0.00E+00  0.00E+00  1.47E-05  4.63E-04  4.52E-03  0.03114
    564.  17.730  1.45E-05  4.60E-04  1.44E-07  4.57E-06  0.00E+00  0.00E+00  1.46E-05  4.65E-04  4.55E-03  0.00960
    566.  17.668  1.45E-05  4.63E-04  1.49E-07  4.78E-06  0.00E+00  0.00E+00  1.46E-05  4.68E-04  4.58E-03  0.00997
    568.  17.606  1.45E-05  4.69E-04  1.09E-09  3.51E-08  0.00E+00  0.00E+00  1.45E-05  4.69E-04  4.61E-03  0.00007
    570.  17.544  1.45E-05  4.72E-04  5.29E-09  1.72E-07  0.00E+00  0.00E+00  1.45E-05  4.72E-04  4.64E-03  0.00035
    572.  17.483  1.45E-05  4.73E-04  1.66E-07  5.45E-06  0.00E+00  0.00E+00  1.46E-05  4.79E-04  4.67E-03  0.01111
    574.  17.422  1.43E-05  4.71E-04  3.64E-07  1.20E-05  0.00E+00  0.00E+00  1.47E-05  4.83E-04  4.70E-03  0.02429
    576.  17.361  1.45E-05  4.83E-04  1.12E-08  3.71E-07  0.00E+00  0.00E+00  1.46E-05  4.83E-04  4.73E-03  0.00075
    578.  17.301  1.44E-05  4.82E-04  1.98E-07  6.63E-06  0.00E+00  0.00E+00  1.46E-05  4.88E-04  4.76E-03  0.01323
    580.  17.241  1.45E-05  4.88E-04  8.20E-08  2.76E-06  0.00E+00  0.00E+00  1.46E-05  4.90E-04  4.79E-03  0.00547
    582.  17.182  1.45E-05  4.91E-04  8.38E-08  2.84E-06  0.00E+00  0.00E+00  1.46E-05  4.94E-04  4.81E-03  0.00559
    584.  17.123  1.45E-05  4.95E-04  1.05E-07  3.59E-06  0.00E+00  0.00E+00  1.46E-05  4.98E-04  4.84E-03  0.00702
    586.  17.065  1.43E-05  4.92E-04  3.37E-07  1.16E-05  0.00E+00  0.00E+00  1.47E-05  5.03E-04  4.87E-03  0.02248
    588.  17.007  1.40E-05  4.86E-04  6.33E-07  2.19E-05  0.00E+00  0.00E+00  1.47E-05  5.08E-04  4.90E-03  0.04222
    590.  16.949  1.45E-05  5.03E-04  1.43E-07  4.99E-06  0.00E+00  0.00E+00  1.46E-05  5.08E-04  4.93E-03  0.00957
    592.  16.892  1.45E-05  5.09E-04  3.64E-11  1.28E-09  0.00E+00  0.00E+00  1.45E-05  5.09E-04  4.96E-03  0.00000
    594.  16.835  1.45E-05  5.13E-04  9.58E-09  3.38E-07  0.00E+00  0.00E+00  1.46E-05  5.14E-04  4.99E-03  0.00064
    596.  16.779  1.44E-05  5.12E-04  1.96E-07  6.97E-06  0.00E+00  0.00E+00  1.46E-05  5.19E-04  5.02E-03  0.01310
    598.  16.722  1.43E-05  5.12E-04  3.11E-07  1.11E-05  0.00E+00  0.00E+00  1.46E-05  5.23E-04  5.05E-03  0.02072
1                                             RADIANCE(WATTS/CM2-STER-XXX)
0  FREQ   WAVLEN    PATH THERMAL      SURFACE EMISSION    SURFACE REFLECTED     TOTAL RADIANCE   INTEGRAL    TOTAL
  (CM-1) (MICRN)    (CM-1)   (MICRN)    (CM-1)   (MICRN)    (CM-1)   (MICRN)    (CM-1)   (MICRN)    (CM-1)   TRANS

    600.  16.667  1.44E-05  5.20E-04  1.42E-07  5.11E-06  0.00E+00  0.00E+00  1.46E-05  5.25E-04  5.08E-03  0.00947
    602.  16.611  1.43E-05  5.18E-04  3.49E-07  1.26E-05  0.00E+00  0.00E+00  1.46E-05  5.30E-04  5.11E-03  0.02328
    604.  16.556  1.44E-05  5.24E-04  2.52E-07  9.19E-06  0.00E+00  0.00E+00  1.46E-05  5.33E-04  5.14E-03  0.01682
    606.  16.502  1.40E-05  5.15E-04  6.11E-07  2.24E-05  0.00E+00  0.00E+00  1.46E-05  5.38E-04  5.17E-03  0.04080
    608.  16.447  1.40E-05  5.17E-04  6.69E-07  2.47E-05  0.00E+00  0.00E+00  1.46E-05  5.41E-04  5.20E-03  0.04469
    610.  16.393  1.39E-05  5.17E-04  7.50E-07  2.79E-05  0.00E+00  0.00E+00  1.46E-05  5.45E-04  5.22E-03  0.05012
    612.  16.340  1.41E-05  5.27E-04  5.65E-07  2.12E-05  0.00E+00  0.00E+00  1.46E-05  5.48E-04  5.25E-03  0.03777
    614.  16.287  1.43E-05  5.40E-04  2.66E-07  1.00E-05  0.00E+00  0.00E+00  1.46E-05  5.50E-04  5.28E-03  0.01781
    616.  16.234  1.45E-05  5.48E-04  3.22E-08  1.22E-06  0.00E+00  0.00E+00  1.45E-05  5.50E-04  5.31E-03  0.00215
    618.  16.181  1.44E-05  5.50E-04  5.99E-08  2.29E-06  0.00E+00  0.00E+00  1.45E-05  5.52E-04  5.34E-03  0.00401
    620.  16.129  1.44E-05  5.52E-04  1.89E-07  7.26E-06  0.00E+00  0.00E+00  1.46E-05  5.59E-04  5.37E-03  0.01263
    622.  16.077  1.42E-05  5.48E-04  4.11E-07  1.59E-05  0.00E+00  0.00E+00  1.46E-05  5.64E-04  5.40E-03  0.02750
    624.  16.026  1.43E-05  5.58E-04  1.94E-07  7.54E-06  0.00E+00  0.00E+00  1.45E-05  5.65E-04  5.43E-03  0.01296
    626.  15.974  1.44E-05  5.66E-04  1.68E-08  6.59E-07  0.00E+00  0.00E+00  1.45E-05  5.66E-04  5.46E-03  0.00113
    628.  15.924  1.44E-05  5.67E-04  1.33E-07  5.23E-06  0.00E+00  0.00E+00  1.45E-05  5.72E-04  5.49E-03  0.00889
    630.  15.873  1.44E-05  5.70E-04  1.26E-07  5.00E-06  0.00E+00  0.00E+00  1.45E-05  5.75E-04  5.51E-03  0.00846
    632.  15.823  1.44E-05  5.76E-04  3.83E-08  1.53E-06  0.00E+00  0.00E+00  1.45E-05  5.77E-04  5.54E-03  0.00257
    634.  15.773  1.44E-05  5.79E-04  5.56E-09  2.23E-07  0.00E+00  0.00E+00  1.44E-05  5.79E-04  5.57E-03  0.00037
    636.  15.723  1.44E-05  5.82E-04  1.09E-09  4.39E-08  0.00E+00  0.00E+00  1.44E-05  5.82E-04  5.60E-03  0.00007
    638.  15.674  1.44E-05  5.85E-04  1.12E-09  4.57E-08  0.00E+00  0.00E+00  1.44E-05  5.85E-04  5.63E-03  0.00008
    640.  15.625  1.44E-05  5.88E-04  7.34E-10  3.00E-08  0.00E+00  0.00E+00  1.44E-05  5.88E-04  5.66E-03  0.00005
    642.  15.576  1.43E-05  5.91E-04  6.55E-10  2.70E-08  0.00E+00  0.00E+00  1.43E-05  5.91E-04  5.69E-03  0.00004
    644.  15.528  1.43E-05  5.93E-04  1.24E-10  5.14E-09  0.00E+00  0.00E+00  1.43E-05  5.93E-04  5.72E-03  0.00001
    646.  15.480  1.43E-05  5.96E-04  2.48E-11  1.03E-09  0.00E+00  0.00E+00  1.43E-05  5.96E-04  5.74E-03  0.00000
    648.  15.432  1.42E-05  5.98E-04  2.20E-12  9.25E-11  0.00E+00  0.00E+00  1.42E-05  5.98E-04  5.77E-03  0.00000
    650.  15.385  1.42E-05  6.01E-04  1.91E-13  8.09E-12  0.00E+00  0.00E+00  1.42E-05  6.01E-04  5.80E-03  0.00000
    652.  15.337  1.42E-05  6.05E-04  2.17E-12  9.24E-11  0.00E+00  0.00E+00  1.42E-05  6.05E-04  5.83E-03  0.00000
    654.  15.291  1.42E-05  6.08E-04  7.43E-12  3.18E-10  0.00E+00  0.00E+00  1.42E-05  6.08E-04  5.86E-03  0.00000
    656.  15.244  1.42E-05  6.11E-04  9.67E-12  4.16E-10  0.00E+00  0.00E+00  1.42E-05  6.11E-04  5.89E-03  0.00000
    658.  15.198  1.42E-05  6.14E-04  5.72E-12  2.48E-10  0.00E+00  0.00E+00  1.42E-05  6.14E-04  5.92E-03  0.00000
    660.  15.152  1.42E-05  6.17E-04  1.58E-11  6.90E-10  0.00E+00  0.00E+00  1.42E-05  6.17E-04  5.94E-03  0.00000
    662.  15.106  1.41E-05  6.20E-04  1.51E-11  6.60E-10  0.00E+00  0.00E+00  1.41E-05  6.20E-04  5.97E-03  0.00000
    664.  15.060  1.41E-05  6.23E-04  9.82E-13  4.33E-11  0.00E+00  0.00E+00  1.41E-05  6.23E-04  6.00E-03  0.00000
    666.  15.015  1.41E-05  6.24E-04  6.76E-15  3.00E-13  0.00E+00  0.00E+00  1.41E-05  6.24E-04  6.03E-03  0.00000
    668.  14.970  1.40E-05  6.27E-04  0.00E+00  0.00E+00  0.00E+00  0.00E+00  1.40E-05  6.27E-04  6.06E-03  0.00000
    670.  14.925  1.40E-05  6.30E-04  1.52E-17  6.80E-16  0.00E+00  0.00E+00  1.40E-05  6.30E-04  6.08E-03  0.00000
    672.  14.881  1.40E-05  6.34E-04  1.41E-13  6.38E-12  0.00E+00  0.00E+00  1.40E-05  6.34E-04  6.11E-03  0.00000
    674.  14.837  1.41E-05  6.38E-04  1.46E-12  6.64E-11  0.00E+00  0.00E+00  1.41E-05  6.38E-04  6.14E-03  0.00000
    676.  14.793  1.40E-05  6.41E-04  1.80E-12  8.25E-11  0.00E+00  0.00E+00  1.40E-05  6.41E-04  6.17E-03  0.00000
    678.  14.749  1.40E-05  6.44E-04  2.98E-13  1.37E-11  0.00E+00  0.00E+00  1.40E-05  6.44E-04  6.20E-03  0.00000
    680.  14.706  1.40E-05  6.46E-04  2.90E-13  1.34E-11  0.00E+00  0.00E+00  1.40E-05  6.46E-04  6.22E-03  0.00000
    682.  14.663  1.40E-05  6.50E-04  8.76E-13  4.07E-11  0.00E+00  0.00E+00  1.40E-05  6.50E-04  6.25E-03  0.00000
    684.  14.620  1.40E-05  6.53E-04  1.34E-12  6.28E-11  0.00E+00  0.00E+00  1.40E-05  6.53E-04  6.28E-03  0.00000
    686.  14.577  1.40E-05  6.57E-04  9.21E-12  4.33E-10  0.00E+00  0.00E+00  1.40E-05  6.57E-04  6.31E-03  0.00000
    688.  14.535  1.39E-05  6.58E-04  9.77E-13  4.63E-11  0.00E+00  0.00E+00  1.39E-05  6.58E-04  6.34E-03  0.00000
    690.  14.493  1.39E-05  6.62E-04  2.84E-12  1.35E-10  0.00E+00  0.00E+00  1.39E-05  6.62E-04  6.36E-03  0.00000
    692.  14.451  1.39E-05  6.67E-04  3.71E-10  1.78E-08  0.00E+00  0.00E+00  1.39E-05  6.67E-04  6.39E-03  0.00003
    694.  14.409  1.39E-05  6.70E-04  4.19E-10  2.02E-08  0.00E+00  0.00E+00  1.39E-05  6.70E-04  6.42E-03  0.00003
    696.  14.368  1.39E-05  6.72E-04  3.18E-10  1.54E-08  0.00E+00  0.00E+00  1.39E-05  6.72E-04  6.45E-03  0.00002
    698.  14.327  1.39E-05  6.76E-04  4.55E-09  2.22E-07  0.00E+00  0.00E+00  1.39E-05  6.77E-04  6.48E-03  0.00032
1                                             RADIANCE(WATTS/CM2-STER-XXX)
0  FREQ   WAVLEN    PATH THERMAL      SURFACE EMISSION    SURFACE REFLECTED     TOTAL RADIANCE   INTEGRAL    TOTAL
  (CM-1) (MICRN)    (CM-1)   (MICRN)    (CM-1)   (MICRN)    (CM-1)   (MICRN)    (CM-1)   (MICRN)    (CM-1)   TRANS

    700.  14.286  1.39E-05  6.80E-04  3.95E-08  1.94E-06  0.00E+00  0.00E+00  1.39E-05  6.82E-04  6.50E-03  0.00275
    702.  14.245  1.39E-05  6.83E-04  2.60E-08  1.28E-06  0.00E+00  0.00E+00  1.39E-05  6.84E-04  6.53E-03  0.00181
    704.  14.205  1.38E-05  6.86E-04  1.54E-08  7.64E-07  0.00E+00  0.00E+00  1.39E-05  6.87E-04  6.56E-03  0.00107
    706.  14.164  1.38E-05  6.88E-04  3.83E-08  1.91E-06  0.00E+00  0.00E+00  1.38E-05  6.90E-04  6.59E-03  0.00267
    708.  14.124  1.37E-05  6.85E-04  1.95E-07  9.75E-06  0.00E+00  0.00E+00  1.39E-05  6.95E-04  6.61E-03  0.01360
    710.  14.085  1.34E-05  6.76E-04  4.78E-07  2.41E-05  0.00E+00  0.00E+00  1.39E-05  7.00E-04  6.64E-03  0.03343
    712.  14.045  1.32E-05  6.71E-04  6.49E-07  3.29E-05  0.00E+00  0.00E+00  1.39E-05  7.04E-04  6.67E-03  0.04549
    714.  14.006  1.34E-05  6.85E-04  4.07E-07  2.07E-05  0.00E+00  0.00E+00  1.38E-05  7.05E-04  6.70E-03  0.02856
    716.  13.966  1.24E-05  6.38E-04  1.44E-06  7.40E-05  0.00E+00  0.00E+00  1.39E-05  7.12E-04  6.72E-03  0.10140
    718.  13.928  1.31E-05  6.77E-04  6.75E-07  3.48E-05  0.00E+00  0.00E+00  1.38E-05  7.12E-04  6.75E-03  0.04749
    720.  13.889  1.36E-05  7.06E-04  1.34E-08  6.95E-07  0.00E+00  0.00E+00  1.36E-05  7.06E-04  6.78E-03  0.00094
    722.  13.850  1.20E-05  6.24E-04  1.83E-06  9.54E-05  0.00E+00  0.00E+00  1.38E-05  7.19E-04  6.81E-03  0.12924
    724.  13.812  1.10E-05  5.75E-04  2.91E-06  1.52E-04  0.00E+00  0.00E+00  1.39E-05  7.27E-04  6.84E-03  0.20553
    726.  13.774  1.04E-05  5.49E-04  3.45E-06  1.82E-04  0.00E+00  0.00E+00  1.39E-05  7.31E-04  6.86E-03  0.24415
    728.  13.736  1.12E-05  5.92E-04  2.63E-06  1.40E-04  0.00E+00  0.00E+00  1.38E-05  7.31E-04  6.89E-03  0.18690
    730.  13.699  1.27E-05  6.77E-04  9.87E-07  5.26E-05  0.00E+00  0.00E+00  1.37E-05  7.30E-04  6.92E-03  0.07012
    732.  13.661  1.21E-05  6.49E-04  1.59E-06  8.54E-05  0.00E+00  0.00E+00  1.37E-05  7.35E-04  6.95E-03  0.11351
    734.  13.624  1.09E-05  5.86E-04  2.87E-06  1.55E-04  0.00E+00  0.00E+00  1.37E-05  7.40E-04  6.97E-03  0.20468
    736.  13.587  1.13E-05  6.10E-04  2.45E-06  1.33E-04  0.00E+00  0.00E+00  1.37E-05  7.42E-04  7.00E-03  0.17488
    738.  13.550  1.14E-05  6.23E-04  2.23E-06  1.21E-04  0.00E+00  0.00E+00  1.37E-05  7.44E-04  7.03E-03  0.15959
    740.  13.514  1.20E-05  6.58E-04  1.58E-06  8.64E-05  0.00E+00  0.00E+00  1.36E-05  7.45E-04  7.05E-03  0.11304
    742.  13.477  1.24E-05  6.85E-04  1.09E-06  5.98E-05  0.00E+00  0.00E+00  1.35E-05  7.45E-04  7.08E-03  0.07806
    744.  13.441  1.16E-05  6.45E-04  1.93E-06  1.07E-04  0.00E+00  0.00E+00  1.36E-05  7.51E-04  7.11E-03  0.13869
    746.  13.405  1.00E-05  5.58E-04  3.60E-06  2.00E-04  0.00E+00  0.00E+00  1.36E-05  7.58E-04  7.14E-03  0.25917
    748.  13.369  1.08E-05  6.05E-04  2.74E-06  1.53E-04  0.00E+00  0.00E+00  1.36E-05  7.59E-04  7.16E-03  0.19807
    750.  13.333  9.60E-06  5.40E-04  3.99E-06  2.24E-04  0.00E+00  0.00E+00  1.36E-05  7.64E-04  7.19E-03  0.28838
    752.  13.298  9.81E-06  5.55E-04  3.74E-06  2.11E-04  0.00E+00  0.00E+00  1.36E-05  7.66E-04  7.22E-03  0.27092
    754.  13.263  1.10E-05  6.23E-04  2.52E-06  1.43E-04  0.00E+00  0.00E+00  1.35E-05  7.66E-04  7.24E-03  0.18293
    756.  13.228  9.97E-06  5.70E-04  3.52E-06  2.01E-04  0.00E+00  0.00E+00  1.35E-05  7.71E-04  7.27E-03  0.25611
    758.  13.193  7.71E-06  4.43E-04  5.83E-06  3.35E-04  0.00E+00  0.00E+00  1.35E-05  7.78E-04  7.30E-03  0.42489
    760.  13.158  7.88E-06  4.55E-04  5.62E-06  3.25E-04  0.00E+00  0.00E+00  1.35E-05  7.80E-04  7.33E-03  0.41075
    762.  13.123  7.38E-06  4.29E-04  6.12E-06  3.55E-04  0.00E+00  0.00E+00  1.35E-05  7.84E-04  7.35E-03  0.44751
    764.  13.089  6.87E-06  4.01E-04  6.62E-06  3.86E-04  0.00E+00  0.00E+00  1.35E-05  7.87E-04  7.38E-03  0.48528
    766.  13.055  7.08E-06  4.15E-04  6.37E-06  3.74E-04  0.00E+00  0.00E+00  1.34E-05  7.89E-04  7.41E-03  0.46782
    768.  13.021  7.63E-06  4.50E-04  5.77E-06  3.41E-04  0.00E+00  0.00E+00  1.34E-05  7.91E-04  7.43E-03  0.42504
    770.  12.987  8.39E-06  4.98E-04  4.96E-06  2.94E-04  0.00E+00  0.00E+00  1.33E-05  7.91E-04  7.46E-03  0.36573
    772.  12.953  6.57E-06  3.92E-04  6.81E-06  4.06E-04  0.00E+00  0.00E+00  1.34E-05  7.97E-04  7.49E-03  0.50315
    774.  12.920  6.72E-06  4.02E-04  6.63E-06  3.97E-04  0.00E+00  0.00E+00  1.33E-05  7.99E-04  7.51E-03  0.49099
    776.  12.887  9.60E-06  5.78E-04  3.61E-06  2.17E-04  0.00E+00  0.00E+00  1.32E-05  7.96E-04  7.54E-03  0.26795
    778.  12.853  8.16E-06  4.94E-04  5.07E-06  3.07E-04  0.00E+00  0.00E+00  1.32E-05  8.01E-04  7.57E-03  0.37744
    780.  12.821  7.07E-06  4.30E-04  6.17E-06  3.75E-04  0.00E+00  0.00E+00  1.32E-05  8.06E-04  7.59E-03  0.46002
    782.  12.788  6.34E-06  3.88E-04  6.90E-06  4.22E-04  0.00E+00  0.00E+00  1.32E-05  8.10E-04  7.62E-03  0.51537
    784.  12.755  9.29E-06  5.71E-04  3.81E-06  2.34E-04  0.00E+00  0.00E+00  1.31E-05  8.05E-04  7.65E-03  0.28503
    786.  12.723  6.69E-06  4.13E-04  6.48E-06  4.00E-04  0.00E+00  0.00E+00  1.32E-05  8.13E-04  7.67E-03  0.48632
    788.  12.690  5.96E-06  3.70E-04  7.20E-06  4.47E-04  0.00E+00  0.00E+00  1.32E-05  8.17E-04  7.70E-03  0.54177
    790.  12.658  5.91E-06  3.69E-04  7.22E-06  4.51E-04  0.00E+00  0.00E+00  1.31E-05  8.20E-04  7.72E-03  0.54445
    792.  12.626  7.12E-06  4.46E-04  5.95E-06  3.73E-04  0.00E+00  0.00E+00  1.31E-05  8.19E-04  7.75E-03  0.44924
    794.  12.594  8.58E-06  5.41E-04  4.40E-06  2.77E-04  0.00E+00  0.00E+00  1.30E-05  8.18E-04  7.78E-03  0.33310
    796.  12.563  9.14E-06  5.79E-04  3.78E-06  2.40E-04  0.00E+00  0.00E+00  1.29E-05  8.19E-04  7.80E-03  0.28686
    798.  12.531  9.49E-06  6.04E-04  3.39E-06  2.16E-04  0.00E+00  0.00E+00  1.29E-05  8.20E-04  7.83E-03  0.25737
1                                             RADIANCE(WATTS/CM2-STER-XXX)
0  FREQ   WAVLEN    PATH THERMAL      SURFACE EMISSION    SURFACE REFLECTED     TOTAL RADIANCE   INTEGRAL    TOTAL
  (CM-1) (MICRN)    (CM-1)   (MICRN)    (CM-1)   (MICRN)    (CM-1)   (MICRN)    (CM-1)   (MICRN)    (CM-1)   TRANS

    800.  12.500  7.61E-06  4.87E-04  5.30E-06  3.39E-04  0.00E+00  0.00E+00  1.29E-05  8.26E-04  7.85E-03  0.40381
    802.  12.469  6.63E-06  4.27E-04  6.29E-06  4.05E-04  0.00E+00  0.00E+00  1.29E-05  8.31E-04  7.88E-03  0.48048
    804.  12.438  8.13E-06  5.25E-04  4.71E-06  3.05E-04  0.00E+00  0.00E+00  1.28E-05  8.30E-04  7.91E-03  0.36112
    806.  12.407  6.08E-06  3.95E-04  6.80E-06  4.42E-04  0.00E+00  0.00E+00  1.29E-05  8.37E-04  7.93E-03  0.52190
    808.  12.376  7.61E-06  4.97E-04  5.19E-06  3.39E-04  0.00E+00  0.00E+00  1.28E-05  8.35E-04  7.96E-03  0.39901
    810.  12.346  5.44E-06  3.57E-04  7.39E-06  4.85E-04  0.00E+00  0.00E+00  1.28E-05  8.42E-04  7.98E-03  0.57022
    812.  12.315  5.33E-06  3.51E-04  7.48E-06  4.93E-04  0.00E+00  0.00E+00  1.28E-05  8.44E-04  8.01E-03  0.57845
    814.  12.285  7.53E-06  4.99E-04  5.17E-06  3.43E-04  0.00E+00  0.00E+00  1.27E-05  8.42E-04  8.03E-03  0.40079
    816.  12.255  6.04E-06  4.02E-04  6.68E-06  4.45E-04  0.00E+00  0.00E+00  1.27E-05  8.47E-04  8.06E-03  0.51907
    818.  12.225  5.04E-06  3.37E-04  7.68E-06  5.14E-04  0.00E+00  0.00E+00  1.27E-05  8.51E-04  8.08E-03  0.59825
    820.  12.195  4.97E-06  3.34E-04  7.72E-06  5.19E-04  0.00E+00  0.00E+00  1.27E-05  8.53E-04  8.11E-03  0.60260
    822.  12.165  4.95E-06  3.34E-04  7.71E-06  5.21E-04  0.00E+00  0.00E+00  1.27E-05  8.55E-04  8.13E-03  0.60323
    824.  12.136  5.28E-06  3.58E-04  7.34E-06  4.98E-04  0.00E+00  0.00E+00  1.26E-05  8.56E-04  8.16E-03  0.57556
    826.  12.107  5.62E-06  3.83E-04  6.95E-06  4.74E-04  0.00E+00  0.00E+00  1.26E-05  8.58E-04  8.19E-03  0.54685
    828.  12.077  6.81E-06  4.67E-04  5.68E-06  3.90E-04  0.00E+00  0.00E+00  1.25E-05  8.57E-04  8.21E-03  0.44828
    830.  12.048  4.78E-06  3.29E-04  7.75E-06  5.34E-04  0.00E+00  0.00E+00  1.25E-05  8.63E-04  8.24E-03  0.61309
    832.  12.019  4.69E-06  3.25E-04  7.81E-06  5.41E-04  0.00E+00  0.00E+00  1.25E-05  8.65E-04  8.26E-03  0.61912
    834.  11.990  4.66E-06  3.24E-04  7.81E-06  5.43E-04  0.00E+00  0.00E+00  1.25E-05  8.67E-04  8.29E-03  0.62061
    836.  11.962  5.08E-06  3.55E-04  7.34E-06  5.13E-04  0.00E+00  0.00E+00  1.24E-05  8.68E-04  8.31E-03  0.58501
    838.  11.933  4.70E-06  3.30E-04  7.70E-06  5.41E-04  0.00E+00  0.00E+00  1.24E-05  8.71E-04  8.33E-03  0.61515
    840.  11.905  6.54E-06  4.62E-04  5.76E-06  4.07E-04  0.00E+00  0.00E+00  1.23E-05  8.68E-04  8.36E-03  0.46152
    842.  11.876  4.99E-06  3.54E-04  7.34E-06  5.20E-04  0.00E+00  0.00E+00  1.23E-05  8.74E-04  8.38E-03  0.58940
    844.  11.848  4.44E-06  3.17E-04  7.86E-06  5.60E-04  0.00E+00  0.00E+00  1.23E-05  8.77E-04  8.41E-03  0.63331
    846.  11.820  4.46E-06  3.19E-04  7.81E-06  5.59E-04  0.00E+00  0.00E+00  1.23E-05  8.78E-04  8.43E-03  0.63068
    848.  11.792  4.50E-06  3.23E-04  7.74E-06  5.57E-04  0.00E+00  0.00E+00  1.22E-05  8.80E-04  8.46E-03  0.62678
    850.  11.765  6.02E-06  4.35E-04  6.13E-06  4.43E-04  0.00E+00  0.00E+00  1.22E-05  8.78E-04  8.48E-03  0.49792
    852.  11.737  7.70E-06  5.59E-04  4.35E-06  3.16E-04  0.00E+00  0.00E+00  1.21E-05  8.75E-04  8.51E-03  0.35419
    854.  11.710  6.38E-06  4.65E-04  5.69E-06  4.15E-04  0.00E+00  0.00E+00  1.21E-05  8.81E-04  8.53E-03  0.46477
    856.  11.682  5.11E-06  3.74E-04  6.97E-06  5.11E-04  0.00E+00  0.00E+00  1.21E-05  8.85E-04  8.55E-03  0.57077
    858.  11.655  4.32E-06  3.18E-04  7.76E-06  5.71E-04  0.00E+00  0.00E+00  1.21E-05  8.89E-04  8.58E-03  0.63682
    860.  11.628  4.43E-06  3.28E-04  7.60E-06  5.62E-04  0.00E+00  0.00E+00  1.20E-05  8.90E-04  8.60E-03  0.62573
    862.  11.601  4.08E-06  3.03E-04  7.93E-06  5.90E-04  0.00E+00  0.00E+00  1.20E-05  8.93E-04  8.63E-03  0.65475
    864.  11.574  4.75E-06  3.54E-04  7.21E-06  5.38E-04  0.00E+00  0.00E+00  1.20E-05  8.93E-04  8.65E-03  0.59678
    866.  11.547  4.81E-06  3.61E-04  7.11E-06  5.33E-04  0.00E+00  0.00E+00  1.19E-05  8.94E-04  8.67E-03  0.59035
    868.  11.521  3.98E-06  3.00E-04  7.94E-06  5.98E-04  0.00E+00  0.00E+00  1.19E-05  8.98E-04  8.70E-03  0.66060
    870.  11.494  4.52E-06  3.42E-04  7.34E-06  5.55E-04  0.00E+00  0.00E+00  1.19E-05  8.98E-04  8.72E-03  0.61240
    872.  11.468  4.61E-06  3.50E-04  7.21E-06  5.49E-04  0.00E+00  0.00E+00  1.18E-05  8.99E-04  8.75E-03  0.60395
    874.  11.442  3.88E-06  2.97E-04  7.93E-06  6.06E-04  0.00E+00  0.00E+00  1.18E-05  9.02E-04  8.77E-03  0.66569
    876.  11.416  3.90E-06  2.99E-04  7.88E-06  6.05E-04  0.00E+00  0.00E+00  1.18E-05  9.04E-04  8.79E-03  0.66348
    878.  11.390  4.39E-06  3.38E-04  7.34E-06  5.66E-04  0.00E+00  0.00E+00  1.17E-05  9.04E-04  8.82E-03  0.61942
    880.  11.364  4.44E-06  3.44E-04  7.25E-06  5.61E-04  0.00E+00  0.00E+00  1.17E-05  9.05E-04  8.84E-03  0.61368
    882.  11.338  4.14E-06  3.22E-04  7.52E-06  5.85E-04  0.00E+00  0.00E+00  1.17E-05  9.07E-04  8.86E-03  0.63873
    884.  11.312  4.84E-06  3.79E-04  6.76E-06  5.28E-04  0.00E+00  0.00E+00  1.16E-05  9.07E-04  8.89E-03  0.57594
    886.  11.287  4.36E-06  3.43E-04  7.22E-06  5.67E-04  0.00E+00  0.00E+00  1.16E-05  9.09E-04  8.91E-03  0.61690
    888.  11.261  4.78E-06  3.77E-04  6.75E-06  5.33E-04  0.00E+00  0.00E+00  1.15E-05  9.10E-04  8.93E-03  0.57878
    890.  11.236  4.45E-06  3.53E-04  7.06E-06  5.59E-04  0.00E+00  0.00E+00  1.15E-05  9.12E-04  8.96E-03  0.60670
    892.  11.211  3.78E-06  3.01E-04  7.72E-06  6.14E-04  0.00E+00  0.00E+00  1.15E-05  9.15E-04  8.98E-03  0.66556
    894.  11.186  3.55E-06  2.84E-04  7.92E-06  6.33E-04  0.00E+00  0.00E+00  1.15E-05  9.17E-04  9.00E-03  0.68445
    896.  11.161  3.60E-06  2.89E-04  7.84E-06  6.29E-04  0.00E+00  0.00E+00  1.14E-05  9.18E-04  9.02E-03  0.67983
    898.  11.136  3.76E-06  3.03E-04  7.64E-06  6.16E-04  0.00E+00  0.00E+00  1.14E-05  9.19E-04  9.05E-03  0.66444
1                                             RADIANCE(WATTS/CM2-STER-XXX)
0  FREQ   WAVLEN    PATH THERMAL      SURFACE EMISSION    SURFACE REFLECTED     TOTAL RADIANCE   INTEGRAL    TOTAL
  (CM-1) (MICRN)    (CM-1)   (MICRN)    (CM-1)   (MICRN)    (CM-1)   (MICRN)    (CM-1)   (MICRN)    (CM-1)   TRANS

    900.  11.111  3.46E-06  2.80E-04  7.91E-06  6.41E-04  0.00E+00  0.00E+00  1.14E-05  9.21E-04  9.07E-03  0.69016
    902.  11.086  3.46E-06  2.81E-04  7.87E-06  6.41E-04  0.00E+00  0.00E+00  1.13E-05  9.22E-04  9.09E-03  0.68924
    904.  11.062  3.47E-06  2.84E-04  7.83E-06  6.40E-04  0.00E+00  0.00E+00  1.13E-05  9.23E-04  9.12E-03  0.68713
    906.  11.038  4.00E-06  3.28E-04  7.24E-06  5.94E-04  0.00E+00  0.00E+00  1.12E-05  9.23E-04  9.14E-03  0.63779
    908.  11.013  4.41E-06  3.64E-04  6.78E-06  5.59E-04  0.00E+00  0.00E+00  1.12E-05  9.23E-04  9.16E-03  0.59908
    910.  10.989  4.33E-06  3.58E-04  6.83E-06  5.66E-04  0.00E+00  0.00E+00  1.12E-05  9.24E-04  9.18E-03  0.60552
    912.  10.965  3.40E-06  2.83E-04  7.75E-06  6.45E-04  0.00E+00  0.00E+00  1.12E-05  9.28E-04  9.20E-03  0.68913
    914.  10.941  3.67E-06  3.07E-04  7.44E-06  6.22E-04  0.00E+00  0.00E+00  1.11E-05  9.28E-04  9.23E-03  0.66352
    916.  10.917  3.30E-06  2.77E-04  7.79E-06  6.54E-04  0.00E+00  0.00E+00  1.11E-05  9.30E-04  9.25E-03  0.69690
    918.  10.893  3.66E-06  3.09E-04  7.38E-06  6.22E-04  0.00E+00  0.00E+00  1.10E-05  9.30E-04  9.27E-03  0.66214
    920.  10.870  3.41E-06  2.88E-04  7.60E-06  6.44E-04  0.00E+00  0.00E+00  1.10E-05  9.32E-04  9.29E-03  0.68455
    922.  10.846  4.54E-06  3.86E-04  6.40E-06  5.44E-04  0.00E+00  0.00E+00  1.09E-05  9.30E-04  9.32E-03  0.57801
    924.  10.823  3.84E-06  3.28E-04  7.09E-06  6.05E-04  0.00E+00  0.00E+00  1.09E-05  9.33E-04  9.34E-03  0.64222
    926.  10.799  3.68E-06  3.15E-04  7.22E-06  6.19E-04  0.00E+00  0.00E+00  1.09E-05  9.34E-04  9.36E-03  0.65619
    928.  10.776  3.29E-06  2.83E-04  7.59E-06  6.53E-04  0.00E+00  0.00E+00  1.09E-05  9.36E-04  9.38E-03  0.69185
    930.  10.753  3.26E-06  2.82E-04  7.58E-06  6.56E-04  0.00E+00  0.00E+00  1.08E-05  9.37E-04  9.40E-03  0.69368
    932.  10.730  3.14E-06  2.73E-04  7.66E-06  6.65E-04  0.00E+00  0.00E+00  1.08E-05  9.38E-04  9.42E-03  0.70315
    934.  10.707  3.08E-06  2.69E-04  7.69E-06  6.71E-04  0.00E+00  0.00E+00  1.08E-05  9.40E-04  9.45E-03  0.70842
    936.  10.684  3.08E-06  2.70E-04  7.65E-06  6.70E-04  0.00E+00  0.00E+00  1.07E-05  9.40E-04  9.47E-03  0.70680
    938.  10.661  3.07E-06  2.70E-04  7.63E-06  6.71E-04  0.00E+00  0.00E+00  1.07E-05  9.41E-04  9.49E-03  0.70754
    940.  10.638  3.15E-06  2.78E-04  7.51E-06  6.64E-04  0.00E+00  0.00E+00  1.07E-05  9.42E-04  9.51E-03  0.69883
    942.  10.616  3.15E-06  2.79E-04  7.48E-06  6.63E-04  0.00E+00  0.00E+00  1.06E-05  9.43E-04  9.53E-03  0.69768
    944.  10.593  3.17E-06  2.82E-04  7.42E-06  6.61E-04  0.00E+00  0.00E+00  1.06E-05  9.43E-04  9.55E-03  0.69453
    946.  10.571  3.15E-06  2.82E-04  7.40E-06  6.62E-04  0.00E+00  0.00E+00  1.06E-05  9.44E-04  9.57E-03  0.69531
    948.  10.549  4.12E-06  3.70E-04  6.36E-06  5.72E-04  0.00E+00  0.00E+00  1.05E-05  9.42E-04  9.59E-03  0.59997
    950.  10.526  2.95E-06  2.66E-04  7.54E-06  6.80E-04  0.00E+00  0.00E+00  1.05E-05  9.46E-04  9.61E-03  0.71311
    952.  10.504  3.11E-06  2.82E-04  7.33E-06  6.64E-04  0.00E+00  0.00E+00  1.04E-05  9.47E-04  9.64E-03  0.69559
    954.  10.482  3.40E-06  3.09E-04  7.00E-06  6.37E-04  0.00E+00  0.00E+00  1.04E-05  9.46E-04  9.66E-03  0.66646
    956.  10.460  3.29E-06  3.00E-04  7.08E-06  6.47E-04  0.00E+00  0.00E+00  1.04E-05  9.47E-04  9.68E-03  0.67650
    958.  10.438  2.86E-06  2.62E-04  7.49E-06  6.87E-04  0.00E+00  0.00E+00  1.03E-05  9.49E-04  9.70E-03  0.71809
    960.  10.417  3.05E-06  2.81E-04  7.25E-06  6.68E-04  0.00E+00  0.00E+00  1.03E-05  9.49E-04  9.72E-03  0.69789
    962.  10.395  2.75E-06  2.54E-04  7.53E-06  6.97E-04  0.00E+00  0.00E+00  1.03E-05  9.51E-04  9.74E-03  0.72669
    964.  10.373  2.66E-06  2.47E-04  7.58E-06  7.05E-04  0.00E+00  0.00E+00  1.02E-05  9.52E-04  9.76E-03  0.73483
    966.  10.352  3.00E-06  2.80E-04  7.19E-06  6.71E-04  0.00E+00  0.00E+00  1.02E-05  9.51E-04  9.78E-03  0.69937
    968.  10.331  2.83E-06  2.65E-04  7.33E-06  6.87E-04  0.00E+00  0.00E+00  1.02E-05  9.52E-04  9.80E-03  0.71525
    970.  10.309  2.92E-06  2.75E-04  7.20E-06  6.78E-04  0.00E+00  0.00E+00  1.01E-05  9.53E-04  9.82E-03  0.70519
    972.  10.288  3.42E-06  3.23E-04  6.65E-06  6.28E-04  0.00E+00  0.00E+00  1.01E-05  9.52E-04  9.84E-03  0.65322
    974.  10.267  3.20E-06  3.03E-04  6.84E-06  6.49E-04  0.00E+00  0.00E+00  1.00E-05  9.53E-04  9.86E-03  0.67486
    976.  10.246  3.41E-06  3.25E-04  6.59E-06  6.27E-04  0.00E+00  0.00E+00  1.00E-05  9.52E-04  9.88E-03  0.65172
    978.  10.225  2.77E-06  2.65E-04  7.22E-06  6.90E-04  0.00E+00  0.00E+00  9.99E-06  9.55E-04  9.90E-03  0.71671
    980.  10.204  2.55E-06  2.45E-04  7.41E-06  7.11E-04  0.00E+00  0.00E+00  9.96E-06  9.56E-04  9.92E-03  0.73815
    982.  10.183  2.55E-06  2.46E-04  7.37E-06  7.11E-04  0.00E+00  0.00E+00  9.92E-06  9.57E-04  9.94E-03  0.73724
    984.  10.163  2.62E-06  2.54E-04  7.26E-06  7.03E-04  0.00E+00  0.00E+00  9.88E-06  9.57E-04  9.96E-03  0.72903
    986.  10.142  2.38E-06  2.32E-04  7.47E-06  7.26E-04  0.00E+00  0.00E+00  9.85E-06  9.58E-04  9.98E-03  0.75259
    988.  10.121  2.37E-06  2.31E-04  7.45E-06  7.27E-04  0.00E+00  0.00E+00  9.82E-06  9.58E-04  1.00E-02  0.75333
    990.  10.101  2.41E-06  2.36E-04  7.38E-06  7.23E-04  0.00E+00  0.00E+00  9.78E-06  9.59E-04  1.00E-02  0.74833
    992.  10.081  2.31E-06  2.27E-04  7.44E-06  7.32E-04  0.00E+00  0.00E+00  9.75E-06  9.59E-04  1.00E-02  0.75739
    994.  10.060  2.33E-06  2.30E-04  7.38E-06  7.30E-04  0.00E+00  0.00E+00  9.71E-06  9.60E-04  1.01E-02  0.75463
    996.  10.040  2.29E-06  2.27E-04  7.39E-06  7.33E-04  0.00E+00  0.00E+00  9.68E-06  9.60E-04  1.01E-02  0.75815
    998.  10.020  2.47E-06  2.46E-04  7.17E-06  7.14E-04  0.00E+00  0.00E+00  9.64E-06  9.60E-04  1.01E-02  0.73814
1                                             RADIANCE(WATTS/CM2-STER-XXX)
0  FREQ   WAVLEN    PATH THERMAL      SURFACE EMISSION    SURFACE REFLECTED     TOTAL RADIANCE   INTEGRAL    TOTAL
  (CM-1) (MICRN)    (CM-1)   (MICRN)    (CM-1)   (MICRN)    (CM-1)   (MICRN)    (CM-1)   (MICRN)    (CM-1)   TRANS

   1000.  10.000  2.82E-06  2.82E-04  6.76E-06  6.76E-04  0.00E+00  0.00E+00  9.59E-06  9.59E-04  1.01E-02  0.69879
   1002.   9.980  2.28E-06  2.29E-04  7.29E-06  7.32E-04  0.00E+00  0.00E+00  9.57E-06  9.61E-04  1.01E-02  0.75572
   1004.   9.960  2.58E-06  2.60E-04  6.95E-06  7.00E-04  0.00E+00  0.00E+00  9.52E-06  9.60E-04  1.02E-02  0.72332
   1006.   9.940  2.27E-06  2.29E-04  7.23E-06  7.32E-04  0.00E+00  0.00E+00  9.50E-06  9.61E-04  1.02E-02  0.75577
   1008.   9.921  2.27E-06  2.31E-04  7.19E-06  7.31E-04  0.00E+00  0.00E+00  9.46E-06  9.62E-04  1.02E-02  0.75428
   1010.   9.901  3.14E-06  3.21E-04  6.25E-06  6.38E-04  0.00E+00  0.00E+00  9.40E-06  9.58E-04  1.02E-02  0.65795
   1012.   9.881  2.59E-06  2.65E-04  6.79E-06  6.95E-04  0.00E+00  0.00E+00  9.38E-06  9.61E-04  1.02E-02  0.71744
   1014.   9.862  3.35E-06  3.44E-04  5.97E-06  6.14E-04  0.00E+00  0.00E+00  9.31E-06  9.58E-04  1.02E-02  0.63291
   1016.   9.843  2.44E-06  2.52E-04  6.87E-06  7.09E-04  0.00E+00  0.00E+00  9.31E-06  9.61E-04  1.03E-02  0.73152
   1018.   9.823  3.07E-06  3.19E-04  6.18E-06  6.41E-04  0.00E+00  0.00E+00  9.25E-06  9.59E-04  1.03E-02  0.66058
   1020.   9.804  2.26E-06  2.35E-04  6.99E-06  7.27E-04  0.00E+00  0.00E+00  9.25E-06  9.62E-04  1.03E-02  0.74943
   1022.   9.785  2.25E-06  2.35E-04  6.96E-06  7.27E-04  0.00E+00  0.00E+00  9.21E-06  9.62E-04  1.03E-02  0.74962
   1024.   9.766  2.14E-06  2.25E-04  7.04E-06  7.38E-04  0.00E+00  0.00E+00  9.18E-06  9.63E-04  1.03E-02  0.76077
   1026.   9.747  2.15E-06  2.26E-04  7.00E-06  7.37E-04  0.00E+00  0.00E+00  9.15E-06  9.63E-04  1.04E-02  0.75968
   1028.   9.728  3.21E-06  3.40E-04  5.86E-06  6.19E-04  0.00E+00  0.00E+00  9.07E-06  9.59E-04  1.04E-02  0.63792
   1030.   9.709  3.02E-06  3.21E-04  6.02E-06  6.38E-04  0.00E+00  0.00E+00  9.04E-06  9.59E-04  1.04E-02  0.65807
   1032.   9.690  2.42E-06  2.58E-04  6.61E-06  7.04E-04  0.00E+00  0.00E+00  9.03E-06  9.62E-04  1.04E-02  0.72545
   1034.   9.671  2.15E-06  2.30E-04  6.85E-06  7.32E-04  0.00E+00  0.00E+00  9.00E-06  9.63E-04  1.04E-02  0.75486
   1036.   9.653  2.10E-06  2.25E-04  6.87E-06  7.38E-04  0.00E+00  0.00E+00  8.97E-06  9.63E-04  1.04E-02  0.76039
   1038.   9.634  2.42E-06  2.60E-04  6.51E-06  7.01E-04  0.00E+00  0.00E+00  8.92E-06  9.62E-04  1.05E-02  0.72251
   1040.   9.615  2.50E-06  2.70E-04  6.39E-06  6.91E-04  0.00E+00  0.00E+00  8.89E-06  9.61E-04  1.05E-02  0.71250
   1042.   9.597  2.19E-06  2.37E-04  6.68E-06  7.25E-04  0.00E+00  0.00E+00  8.86E-06  9.62E-04  1.05E-02  0.74716
   1044.   9.579  2.13E-06  2.32E-04  6.70E-06  7.30E-04  0.00E+00  0.00E+00  8.83E-06  9.62E-04  1.05E-02  0.75253
   1046.   9.560  2.03E-06  2.22E-04  6.77E-06  7.41E-04  0.00E+00  0.00E+00  8.80E-06  9.63E-04  1.05E-02  0.76385
   1048.   9.542  2.29E-06  2.51E-04  6.47E-06  7.10E-04  0.00E+00  0.00E+00  8.75E-06  9.61E-04  1.06E-02  0.73203
   1050.   9.524  2.73E-06  3.01E-04  5.97E-06  6.58E-04  0.00E+00  0.00E+00  8.70E-06  9.59E-04  1.06E-02  0.67879
   1052.   9.506  2.42E-06  2.68E-04  6.26E-06  6.93E-04  0.00E+00  0.00E+00  8.68E-06  9.60E-04  1.06E-02  0.71465
   1054.   9.488  2.14E-06  2.38E-04  6.51E-06  7.23E-04  0.00E+00  0.00E+00  8.65E-06  9.61E-04  1.06E-02  0.74620
   1056.   9.470  2.54E-06  2.83E-04  6.06E-06  6.76E-04  0.00E+00  0.00E+00  8.60E-06  9.59E-04  1.06E-02  0.69740
   1058.   9.452  2.20E-06  2.46E-04  6.39E-06  7.15E-04  0.00E+00  0.00E+00  8.58E-06  9.61E-04  1.06E-02  0.73770
   1060.   9.434  2.71E-06  3.04E-04  5.82E-06  6.54E-04  0.00E+00  0.00E+00  8.53E-06  9.58E-04  1.07E-02  0.67486
   1062.   9.416  2.30E-06  2.59E-04  6.21E-06  7.00E-04  0.00E+00  0.00E+00  8.51E-06  9.60E-04  1.07E-02  0.72285
   1064.   9.398  2.21E-06  2.50E-04  6.27E-06  7.09E-04  0.00E+00  0.00E+00  8.48E-06  9.60E-04  1.07E-02  0.73255
   1066.   9.381  3.87E-06  4.40E-04  4.50E-06  5.11E-04  0.00E+00  0.00E+00  8.37E-06  9.51E-04  1.07E-02  0.52808
   1068.   9.363  2.14E-06  2.44E-04  6.27E-06  7.15E-04  0.00E+00  0.00E+00  8.41E-06  9.59E-04  1.07E-02  0.73907
   1070.   9.346  1.90E-06  2.17E-04  6.49E-06  7.43E-04  0.00E+00  0.00E+00  8.39E-06  9.60E-04  1.07E-02  0.76781
   1072.   9.328  2.15E-06  2.47E-04  6.19E-06  7.12E-04  0.00E+00  0.00E+00  8.34E-06  9.59E-04  1.08E-02  0.73559
   1074.   9.311  3.35E-06  3.87E-04  4.90E-06  5.66E-04  0.00E+00  0.00E+00  8.26E-06  9.52E-04  1.08E-02  0.58503
   1076.   9.294  2.26E-06  2.62E-04  6.01E-06  6.96E-04  0.00E+00  0.00E+00  8.27E-06  9.57E-04  1.08E-02  0.71981
   1078.   9.276  1.85E-06  2.16E-04  6.40E-06  7.43E-04  0.00E+00  0.00E+00  8.25E-06  9.59E-04  1.08E-02  0.76917
   1080.   9.259  1.94E-06  2.26E-04  6.27E-06  7.31E-04  0.00E+00  0.00E+00  8.21E-06  9.58E-04  1.08E-02  0.75727
   1082.   9.242  1.92E-06  2.24E-04  6.26E-06  7.33E-04  0.00E+00  0.00E+00  8.18E-06  9.58E-04  1.08E-02  0.75949
   1084.   9.225  1.94E-06  2.28E-04  6.20E-06  7.29E-04  0.00E+00  0.00E+00  8.14E-06  9.57E-04  1.09E-02  0.75530
   1086.   9.208  1.98E-06  2.33E-04  6.13E-06  7.23E-04  0.00E+00  0.00E+00  8.11E-06  9.56E-04  1.09E-02  0.74993
   1088.   9.191  1.89E-06  2.23E-04  6.19E-06  7.33E-04  0.00E+00  0.00E+00  8.08E-06  9.56E-04  1.09E-02  0.76029
   1090.   9.174  2.45E-06  2.91E-04  5.57E-06  6.62E-04  0.00E+00  0.00E+00  8.02E-06  9.53E-04  1.09E-02  0.68620
   1092.   9.158  2.64E-06  3.14E-04  5.34E-06  6.37E-04  0.00E+00  0.00E+00  7.98E-06  9.51E-04  1.09E-02  0.66143
   1094.   9.141  1.71E-06  2.05E-04  6.27E-06  7.51E-04  0.00E+00  0.00E+00  7.98E-06  9.56E-04  1.09E-02  0.77958
   1096.   9.124  1.68E-06  2.01E-04  6.28E-06  7.54E-04  0.00E+00  0.00E+00  7.95E-06  9.55E-04  1.10E-02  0.78328
   1098.   9.107  1.82E-06  2.19E-04  6.10E-06  7.35E-04  0.00E+00  0.00E+00  7.91E-06  9.54E-04  1.10E-02  0.76414
1                                             RADIANCE(WATTS/CM2-STER-XXX)
0  FREQ   WAVLEN    PATH THERMAL      SURFACE EMISSION    SURFACE REFLECTED     TOTAL RADIANCE   INTEGRAL    TOTAL
  (CM-1) (MICRN)    (CM-1)   (MICRN)    (CM-1)   (MICRN)    (CM-1)   (MICRN)    (CM-1)   (MICRN)    (CM-1)   TRANS

   1100.   9.091  3.57E-06  4.31E-04  4.24E-06  5.13E-04  0.00E+00  0.00E+00  7.80E-06  9.44E-04  1.10E-02  0.53311
   1102.   9.074  2.56E-06  3.11E-04  5.26E-06  6.38E-04  0.00E+00  0.00E+00  7.81E-06  9.49E-04  1.10E-02  0.66443
   1104.   9.058  1.74E-06  2.12E-04  6.07E-06  7.40E-04  0.00E+00  0.00E+00  7.81E-06  9.52E-04  1.10E-02  0.77097
   1106.   9.042  3.01E-06  3.69E-04  4.71E-06  5.76E-04  0.00E+00  0.00E+00  7.72E-06  9.45E-04  1.10E-02  0.60015
   1108.   9.025  2.66E-06  3.27E-04  5.04E-06  6.19E-04  0.00E+00  0.00E+00  7.71E-06  9.46E-04  1.10E-02  0.64590
   1110.   9.009  1.94E-06  2.39E-04  5.77E-06  7.11E-04  0.00E+00  0.00E+00  7.71E-06  9.50E-04  1.11E-02  0.74158
   1112.   8.993  3.35E-06  4.15E-04  4.25E-06  5.26E-04  0.00E+00  0.00E+00  7.61E-06  9.41E-04  1.11E-02  0.54924
   1114.   8.977  1.68E-06  2.09E-04  5.97E-06  7.41E-04  0.00E+00  0.00E+00  7.65E-06  9.49E-04  1.11E-02  0.77365
   1116.   8.961  1.65E-06  2.06E-04  5.97E-06  7.43E-04  0.00E+00  0.00E+00  7.62E-06  9.49E-04  1.11E-02  0.77713
   1118.   8.945  2.02E-06  2.53E-04  5.55E-06  6.94E-04  0.00E+00  0.00E+00  7.57E-06  9.46E-04  1.11E-02  0.72565
   1120.   8.929  2.86E-06  3.59E-04  4.63E-06  5.81E-04  0.00E+00  0.00E+00  7.49E-06  9.40E-04  1.11E-02  0.60824
   1122.   8.913  3.04E-06  3.83E-04  4.41E-06  5.55E-04  0.00E+00  0.00E+00  7.45E-06  9.38E-04  1.12E-02  0.58219
   1124.   8.897  1.67E-06  2.11E-04  5.82E-06  7.35E-04  0.00E+00  0.00E+00  7.49E-06  9.46E-04  1.12E-02  0.77069
   1126.   8.881  1.57E-06  1.99E-04  5.89E-06  7.47E-04  0.00E+00  0.00E+00  7.46E-06  9.46E-04  1.12E-02  0.78331
   1128.   8.865  1.53E-06  1.95E-04  5.89E-06  7.50E-04  0.00E+00  0.00E+00  7.43E-06  9.45E-04  1.12E-02  0.78741
   1130.   8.850  1.61E-06  2.06E-04  5.78E-06  7.38E-04  0.00E+00  0.00E+00  7.39E-06  9.44E-04  1.12E-02  0.77554
   1132.   8.834  1.66E-06  2.13E-04  5.70E-06  7.30E-04  0.00E+00  0.00E+00  7.36E-06  9.43E-04  1.12E-02  0.76778
   1134.   8.818  2.68E-06  3.44E-04  4.60E-06  5.91E-04  0.00E+00  0.00E+00  7.28E-06  9.36E-04  1.12E-02  0.62236
   1136.   8.803  5.47E-06  7.06E-04  1.61E-06  2.08E-04  0.00E+00  0.00E+00  7.08E-06  9.14E-04  1.13E-02  0.21893
   1138.   8.787  3.14E-06  4.07E-04  4.05E-06  5.24E-04  0.00E+00  0.00E+00  7.19E-06  9.31E-04  1.13E-02  0.55320
   1140.   8.772  1.66E-06  2.15E-04  5.57E-06  7.24E-04  0.00E+00  0.00E+00  7.23E-06  9.39E-04  1.13E-02  0.76429
   1142.   8.757  1.81E-06  2.36E-04  5.38E-06  7.01E-04  0.00E+00  0.00E+00  7.19E-06  9.38E-04  1.13E-02  0.74086
   1144.   8.741  1.53E-06  2.00E-04  5.64E-06  7.39E-04  0.00E+00  0.00E+00  7.17E-06  9.38E-04  1.13E-02  0.78072
   1146.   8.726  1.53E-06  2.01E-04  5.61E-06  7.37E-04  0.00E+00  0.00E+00  7.14E-06  9.37E-04  1.13E-02  0.77938
   1148.   8.711  2.45E-06  3.23E-04  4.61E-06  6.07E-04  0.00E+00  0.00E+00  7.06E-06  9.30E-04  1.13E-02  0.64290
   1150.   8.696  2.95E-06  3.90E-04  4.06E-06  5.36E-04  0.00E+00  0.00E+00  7.01E-06  9.27E-04  1.14E-02  0.56875
   1152.   8.681  3.73E-06  4.95E-04  3.20E-06  4.25E-04  0.00E+00  0.00E+00  6.93E-06  9.20E-04  1.14E-02  0.45093
   1154.   8.666  1.84E-06  2.45E-04  5.16E-06  6.87E-04  0.00E+00  0.00E+00  7.00E-06  9.32E-04  1.14E-02  0.72995
   1156.   8.651  1.48E-06  1.98E-04  5.50E-06  7.35E-04  0.00E+00  0.00E+00  6.98E-06  9.33E-04  1.14E-02  0.78104
   1158.   8.636  1.43E-06  1.91E-04  5.52E-06  7.41E-04  0.00E+00  0.00E+00  6.95E-06  9.32E-04  1.14E-02  0.78844
   1160.   8.621  1.44E-06  1.93E-04  5.48E-06  7.38E-04  0.00E+00  0.00E+00  6.92E-06  9.31E-04  1.14E-02  0.78618
   1162.   8.606  1.48E-06  2.00E-04  5.41E-06  7.30E-04  0.00E+00  0.00E+00  6.89E-06  9.30E-04  1.14E-02  0.77856
   1164.   8.591  2.64E-06  3.58E-04  4.15E-06  5.63E-04  0.00E+00  0.00E+00  6.80E-06  9.21E-04  1.15E-02  0.60051
   1166.   8.576  3.62E-06  4.92E-04  3.10E-06  4.21E-04  0.00E+00  0.00E+00  6.72E-06  9.13E-04  1.15E-02  0.45006
   1168.   8.562  1.54E-06  2.11E-04  5.25E-06  7.16E-04  0.00E+00  0.00E+00  6.79E-06  9.26E-04  1.15E-02  0.76563
   1170.   8.547  1.66E-06  2.28E-04  5.09E-06  6.97E-04  0.00E+00  0.00E+00  6.75E-06  9.25E-04  1.15E-02  0.74626
   1172.   8.532  2.09E-06  2.88E-04  4.61E-06  6.33E-04  0.00E+00  0.00E+00  6.70E-06  9.21E-04  1.15E-02  0.67882
   1174.   8.518  5.20E-06  7.17E-04  1.27E-06  1.75E-04  0.00E+00  0.00E+00  6.47E-06  8.92E-04  1.15E-02  0.18782
   1176.   8.503  3.51E-06  4.85E-04  3.05E-06  4.22E-04  0.00E+00  0.00E+00  6.56E-06  9.07E-04  1.15E-02  0.45346
   1178.   8.489  1.80E-06  2.50E-04  4.82E-06  6.69E-04  0.00E+00  0.00E+00  6.63E-06  9.19E-04  1.15E-02  0.71968
   1180.   8.475  1.79E-06  2.49E-04  4.81E-06  6.70E-04  0.00E+00  0.00E+00  6.60E-06  9.18E-04  1.16E-02  0.72128
   1182.   8.460  1.59E-06  2.22E-04  4.98E-06  6.96E-04  0.00E+00  0.00E+00  6.57E-06  9.18E-04  1.16E-02  0.75092
   1184.   8.446  1.88E-06  2.64E-04  4.65E-06  6.52E-04  0.00E+00  0.00E+00  6.53E-06  9.15E-04  1.16E-02  0.70330
   1186.   8.432  3.39E-06  4.77E-04  3.01E-06  4.24E-04  0.00E+00  0.00E+00  6.41E-06  9.01E-04  1.16E-02  0.45769
   1188.   8.418  4.48E-06  6.32E-04  1.82E-06  2.58E-04  0.00E+00  0.00E+00  6.31E-06  8.90E-04  1.16E-02  0.27905
   1190.   8.403  1.94E-06  2.74E-04  4.50E-06  6.37E-04  0.00E+00  0.00E+00  6.44E-06  9.12E-04  1.16E-02  0.69050
   1192.   8.389  1.64E-06  2.33E-04  4.78E-06  6.79E-04  0.00E+00  0.00E+00  6.42E-06  9.12E-04  1.16E-02  0.73661
   1194.   8.375  1.71E-06  2.44E-04  4.67E-06  6.66E-04  0.00E+00  0.00E+00  6.39E-06  9.11E-04  1.17E-02  0.72347
   1196.   8.361  1.82E-06  2.60E-04  4.54E-06  6.49E-04  0.00E+00  0.00E+00  6.35E-06  9.09E-04  1.17E-02  0.70550
   1198.   8.347  4.17E-06  5.99E-04  2.01E-06  2.88E-04  0.00E+00  0.00E+00  6.18E-06  8.87E-04  1.17E-02  0.31381
1                                             RADIANCE(WATTS/CM2-STER-XXX)
0  FREQ   WAVLEN    PATH THERMAL      SURFACE EMISSION    SURFACE REFLECTED     TOTAL RADIANCE   INTEGRAL    TOTAL
  (CM-1) (MICRN)    (CM-1)   (MICRN)    (CM-1)   (MICRN)    (CM-1)   (MICRN)    (CM-1)   (MICRN)    (CM-1)   TRANS

   1200.   8.333  2.27E-06  3.27E-04  4.00E-06  5.75E-04  0.00E+00  0.00E+00  6.27E-06  9.02E-04  1.17E-02  0.62765
   1202.   8.319  1.38E-06  1.99E-04  4.91E-06  7.09E-04  0.00E+00  0.00E+00  6.28E-06  9.08E-04  1.17E-02  0.77389
   1204.   8.306  1.25E-06  1.82E-04  5.01E-06  7.26E-04  0.00E+00  0.00E+00  6.26E-06  9.07E-04  1.17E-02  0.79328
   1206.   8.292  2.01E-06  2.92E-04  4.19E-06  6.09E-04  0.00E+00  0.00E+00  6.19E-06  9.01E-04  1.17E-02  0.66677
   1208.   8.278  1.67E-06  2.44E-04  4.51E-06  6.58E-04  0.00E+00  0.00E+00  6.18E-06  9.02E-04  1.17E-02  0.72101
   1210.   8.264  2.93E-06  4.28E-04  3.15E-06  4.62E-04  0.00E+00  0.00E+00  6.08E-06  8.90E-04  1.18E-02  0.50649
   1212.   8.251  5.39E-06  7.91E-04  4.80E-07  7.06E-05  0.00E+00  0.00E+00  5.87E-06  8.62E-04  1.18E-02  0.07750
   1214.   8.237  3.25E-06  4.80E-04  2.74E-06  4.04E-04  0.00E+00  0.00E+00  6.00E-06  8.84E-04  1.18E-02  0.44507
   1216.   8.224  2.05E-06  3.03E-04  4.00E-06  5.91E-04  0.00E+00  0.00E+00  6.05E-06  8.94E-04  1.18E-02  0.65174
   1218.   8.210  3.45E-06  5.11E-04  2.48E-06  3.68E-04  0.00E+00  0.00E+00  5.93E-06  8.80E-04  1.18E-02  0.40625
   1220.   8.197  3.52E-06  5.24E-04  2.38E-06  3.54E-04  0.00E+00  0.00E+00  5.90E-06  8.78E-04  1.18E-02  0.39192
   1222.   8.183  2.50E-06  3.74E-04  3.43E-06  5.13E-04  0.00E+00  0.00E+00  5.94E-06  8.86E-04  1.18E-02  0.56757
   1224.   8.170  3.79E-06  5.67E-04  2.03E-06  3.04E-04  0.00E+00  0.00E+00  5.81E-06  8.71E-04  1.18E-02  0.33621
   1226.   8.157  4.75E-06  7.13E-04  9.51E-07  1.43E-04  0.00E+00  0.00E+00  5.70E-06  8.56E-04  1.18E-02  0.15900
   1228.   8.143  2.08E-06  3.14E-04  3.79E-06  5.71E-04  0.00E+00  0.00E+00  5.87E-06  8.85E-04  1.19E-02  0.63520
   1230.   8.130  1.70E-06  2.57E-04  4.16E-06  6.29E-04  0.00E+00  0.00E+00  5.86E-06  8.87E-04  1.19E-02  0.70100
   1232.   8.117  1.34E-06  2.03E-04  4.52E-06  6.85E-04  0.00E+00  0.00E+00  5.85E-06  8.88E-04  1.19E-02  0.76420
   1234.   8.104  1.37E-06  2.08E-04  4.45E-06  6.78E-04  0.00E+00  0.00E+00  5.82E-06  8.86E-04  1.19E-02  0.75750
   1236.   8.091  2.17E-06  3.32E-04  3.58E-06  5.47E-04  0.00E+00  0.00E+00  5.75E-06  8.79E-04  1.19E-02  0.61151
   1238.   8.078  2.68E-06  4.11E-04  3.01E-06  4.62E-04  0.00E+00  0.00E+00  5.69E-06  8.73E-04  1.19E-02  0.51711
   1240.   8.065  3.11E-06  4.79E-04  2.53E-06  3.89E-04  0.00E+00  0.00E+00  5.64E-06  8.67E-04  1.19E-02  0.43618
   1242.   8.052  3.01E-06  4.64E-04  2.60E-06  4.01E-04  0.00E+00  0.00E+00  5.61E-06  8.66E-04  1.19E-02  0.45090
   1244.   8.039  5.05E-06  7.81E-04  3.73E-07  5.77E-05  0.00E+00  0.00E+00  5.42E-06  8.39E-04  1.19E-02  0.06488
   1246.   8.026  3.07E-06  4.77E-04  2.47E-06  3.84E-04  0.00E+00  0.00E+00  5.55E-06  8.61E-04  1.20E-02  0.43296
   1248.   8.013  2.97E-06  4.63E-04  2.57E-06  4.00E-04  0.00E+00  0.00E+00  5.54E-06  8.62E-04  1.20E-02  0.45109
   1250.   8.000  2.30E-06  3.59E-04  3.25E-06  5.08E-04  0.00E+00  0.00E+00  5.55E-06  8.67E-04  1.20E-02  0.57440
   1252.   7.987  3.14E-06  4.92E-04  2.33E-06  3.65E-04  0.00E+00  0.00E+00  5.47E-06  8.58E-04  1.20E-02  0.41399
   1254.   7.974  3.09E-06  4.87E-04  2.35E-06  3.70E-04  0.00E+00  0.00E+00  5.45E-06  8.57E-04  1.20E-02  0.42011
   1256.   7.962  2.93E-06  4.62E-04  2.50E-06  3.95E-04  0.00E+00  0.00E+00  5.43E-06  8.57E-04  1.20E-02  0.44834
   1258.   7.949  4.13E-06  6.54E-04  1.17E-06  1.86E-04  0.00E+00  0.00E+00  5.31E-06  8.40E-04  1.20E-02  0.21135
   1260.   7.937  5.09E-06  8.09E-04  3.82E-08  6.06E-06  0.00E+00  0.00E+00  5.13E-06  8.15E-04  1.20E-02  0.00689
   1262.   7.924  4.21E-06  6.70E-04  1.02E-06  1.62E-04  0.00E+00  0.00E+00  5.23E-06  8.33E-04  1.20E-02  0.18573
   1264.   7.911  4.32E-06  6.91E-04  8.87E-07  1.42E-04  0.00E+00  0.00E+00  5.21E-06  8.32E-04  1.21E-02  0.16193
   1266.   7.899  4.94E-06  7.92E-04  1.55E-07  2.49E-05  0.00E+00  0.00E+00  5.10E-06  8.17E-04  1.21E-02  0.02847
   1268.   7.886  5.01E-06  8.05E-04  1.37E-08  2.20E-06  0.00E+00  0.00E+00  5.02E-06  8.07E-04  1.21E-02  0.00252
   1270.   7.874  4.98E-06  8.03E-04  8.70E-09  1.40E-06  0.00E+00  0.00E+00  4.99E-06  8.04E-04  1.21E-02  0.00161
   1272.   7.862  4.93E-06  7.97E-04  4.25E-08  6.87E-06  0.00E+00  0.00E+00  4.97E-06  8.04E-04  1.21E-02  0.00793
   1274.   7.849  4.02E-06  6.52E-04  1.08E-06  1.76E-04  0.00E+00  0.00E+00  5.10E-06  8.27E-04  1.21E-02  0.20277
   1276.   7.837  3.01E-06  4.90E-04  2.14E-06  3.49E-04  0.00E+00  0.00E+00  5.15E-06  8.39E-04  1.21E-02  0.40336
   1278.   7.825  2.84E-06  4.63E-04  2.30E-06  3.76E-04  0.00E+00  0.00E+00  5.14E-06  8.39E-04  1.21E-02  0.43543
   1280.   7.813  4.32E-06  7.07E-04  6.58E-07  1.08E-04  0.00E+00  0.00E+00  4.97E-06  8.15E-04  1.21E-02  0.12483
   1282.   7.800  3.80E-06  6.25E-04  1.21E-06  1.98E-04  0.00E+00  0.00E+00  5.01E-06  8.23E-04  1.21E-02  0.23042
   1284.   7.788  4.14E-06  6.82E-04  8.15E-07  1.34E-04  0.00E+00  0.00E+00  4.95E-06  8.17E-04  1.22E-02  0.15649
   1286.   7.776  4.43E-06  7.32E-04  4.54E-07  7.51E-05  0.00E+00  0.00E+00  4.88E-06  8.07E-04  1.22E-02  0.08755
   1288.   7.764  4.75E-06  7.88E-04  5.89E-09  9.77E-07  0.00E+00  0.00E+00  4.76E-06  7.89E-04  1.22E-02  0.00114
   1290.   7.752  4.61E-06  7.67E-04  1.93E-07  3.21E-05  0.00E+00  0.00E+00  4.80E-06  7.99E-04  1.22E-02  0.03759
   1292.   7.740  4.16E-06  6.94E-04  6.80E-07  1.13E-04  0.00E+00  0.00E+00  4.84E-06  8.08E-04  1.22E-02  0.13324
   1294.   7.728  3.65E-06  6.11E-04  1.22E-06  2.04E-04  0.00E+00  0.00E+00  4.87E-06  8.15E-04  1.22E-02  0.23979
   1296.   7.716  4.43E-06  7.44E-04  3.00E-07  5.05E-05  0.00E+00  0.00E+00  4.73E-06  7.94E-04  1.22E-02  0.05929
   1298.   7.704  3.80E-06  6.41E-04  9.85E-07  1.66E-04  0.00E+00  0.00E+00  4.79E-06  8.07E-04  1.22E-02  0.19613
1                                             RADIANCE(WATTS/CM2-STER-XXX)
0  FREQ   WAVLEN    PATH THERMAL      SURFACE EMISSION    SURFACE REFLECTED     TOTAL RADIANCE   INTEGRAL    TOTAL
  (CM-1) (MICRN)    (CM-1)   (MICRN)    (CM-1)   (MICRN)    (CM-1)   (MICRN)    (CM-1)   (MICRN)    (CM-1)   TRANS

   1300.   7.692  3.24E-06  5.47E-04  1.59E-06  2.68E-04  0.00E+00  0.00E+00  4.82E-06  8.15E-04  1.22E-02  0.31714
   1302.   7.680  3.46E-06  5.86E-04  1.32E-06  2.24E-04  0.00E+00  0.00E+00  4.78E-06  8.10E-04  1.22E-02  0.26537
   1304.   7.669  3.98E-06  6.76E-04  7.26E-07  1.24E-04  0.00E+00  0.00E+00  4.70E-06  8.00E-04  1.23E-02  0.14650
   1306.   7.657  4.47E-06  7.62E-04  1.42E-07  2.42E-05  0.00E+00  0.00E+00  4.61E-06  7.86E-04  1.23E-02  0.02872
   1308.   7.645  4.49E-06  7.68E-04  6.02E-08  1.03E-05  0.00E+00  0.00E+00  4.55E-06  7.78E-04  1.23E-02  0.01225
   1310.   7.634  4.39E-06  7.54E-04  1.64E-07  2.82E-05  0.00E+00  0.00E+00  4.56E-06  7.82E-04  1.23E-02  0.03362
   1312.   7.622  4.43E-06  7.62E-04  2.60E-08  4.48E-06  0.00E+00  0.00E+00  4.45E-06  7.67E-04  1.23E-02  0.00534
   1314.   7.610  4.41E-06  7.61E-04  2.16E-11  3.73E-09  0.00E+00  0.00E+00  4.41E-06  7.61E-04  1.23E-02  0.00000
   1316.   7.599  4.38E-06  7.59E-04  2.56E-11  4.44E-09  0.00E+00  0.00E+00  4.38E-06  7.59E-04  1.23E-02  0.00001
   1318.   7.587  4.35E-06  7.56E-04  3.39E-11  5.89E-09  0.00E+00  0.00E+00  4.35E-06  7.56E-04  1.23E-02  0.00001
   1320.   7.576  4.35E-06  7.57E-04  3.20E-11  5.58E-09  0.00E+00  0.00E+00  4.35E-06  7.57E-04  1.23E-02  0.00001
   1322.   7.564  4.34E-06  7.58E-04  3.95E-08  6.90E-06  0.00E+00  0.00E+00  4.38E-06  7.65E-04  1.23E-02  0.00834
   1324.   7.553  4.24E-06  7.44E-04  1.47E-07  2.58E-05  0.00E+00  0.00E+00  4.39E-06  7.70E-04  1.23E-02  0.03125
   1326.   7.541  4.11E-06  7.23E-04  2.88E-07  5.06E-05  0.00E+00  0.00E+00  4.40E-06  7.74E-04  1.23E-02  0.06140
   1328.   7.530  4.22E-06  7.44E-04  1.28E-07  2.25E-05  0.00E+00  0.00E+00  4.35E-06  7.67E-04  1.24E-02  0.02737
   1330.   7.519  4.17E-06  7.39E-04  1.47E-07  2.60E-05  0.00E+00  0.00E+00  4.32E-06  7.64E-04  1.24E-02  0.03170
   1332.   7.508  4.11E-06  7.29E-04  2.08E-07  3.69E-05  0.00E+00  0.00E+00  4.32E-06  7.66E-04  1.24E-02  0.04496
   1334.   7.496  4.21E-06  7.50E-04  4.37E-08  7.78E-06  0.00E+00  0.00E+00  4.26E-06  7.58E-04  1.24E-02  0.00952
   1336.   7.485  4.16E-06  7.42E-04  2.86E-09  5.11E-07  0.00E+00  0.00E+00  4.16E-06  7.43E-04  1.24E-02  0.00063
   1338.   7.474  4.10E-06  7.35E-04  2.42E-15  4.34E-13  0.00E+00  0.00E+00  4.10E-06  7.35E-04  1.24E-02  0.00000
   1340.   7.463  4.08E-06  7.32E-04  3.59E-20  6.45E-18  0.00E+00  0.00E+00  4.08E-06  7.32E-04  1.24E-02  0.00000
   1342.   7.452  4.10E-06  7.39E-04  2.97E-09  5.34E-07  0.00E+00  0.00E+00  4.10E-06  7.39E-04  1.24E-02  0.00066
   1344.   7.440  4.11E-06  7.42E-04  3.42E-08  6.17E-06  0.00E+00  0.00E+00  4.14E-06  7.48E-04  1.24E-02  0.00764
   1346.   7.429  4.07E-06  7.38E-04  6.17E-08  1.12E-05  0.00E+00  0.00E+00  4.13E-06  7.49E-04  1.24E-02  0.01385
   1348.   7.418  4.06E-06  7.39E-04  2.30E-08  4.17E-06  0.00E+00  0.00E+00  4.09E-06  7.43E-04  1.24E-02  0.00518
   1350.   7.407  4.02E-06  7.33E-04  1.40E-08  2.56E-06  0.00E+00  0.00E+00  4.04E-06  7.36E-04  1.25E-02  0.00320
   1352.   7.396  4.03E-06  7.36E-04  3.25E-08  5.94E-06  0.00E+00  0.00E+00  4.06E-06  7.42E-04  1.25E-02  0.00741
   1354.   7.386  3.98E-06  7.29E-04  7.49E-09  1.37E-06  0.00E+00  0.00E+00  3.98E-06  7.30E-04  1.25E-02  0.00171
   1356.   7.375  3.98E-06  7.31E-04  2.22E-09  4.08E-07  0.00E+00  0.00E+00  3.98E-06  7.32E-04  1.25E-02  0.00051
   1358.   7.364  3.95E-06  7.29E-04  2.04E-09  3.76E-07  0.00E+00  0.00E+00  3.96E-06  7.29E-04  1.25E-02  0.00047
   1360.   7.353  3.90E-06  7.22E-04  2.34E-11  4.32E-09  0.00E+00  0.00E+00  3.90E-06  7.22E-04  1.25E-02  0.00001
   1362.   7.342  3.85E-06  7.15E-04  8.02E-16  1.49E-13  0.00E+00  0.00E+00  3.85E-06  7.15E-04  1.25E-02  0.00000
   1364.   7.331  3.83E-06  7.13E-04  1.58E-13  2.94E-11  0.00E+00  0.00E+00  3.83E-06  7.13E-04  1.25E-02  0.00000
   1366.   7.321  3.86E-06  7.19E-04  1.63E-10  3.05E-08  0.00E+00  0.00E+00  3.86E-06  7.19E-04  1.25E-02  0.00004
   1368.   7.310  3.81E-06  7.12E-04  6.21E-11  1.16E-08  0.00E+00  0.00E+00  3.81E-06  7.12E-04  1.25E-02  0.00001
   1370.   7.299  3.80E-06  7.12E-04  1.33E-12  2.50E-10  0.00E+00  0.00E+00  3.80E-06  7.12E-04  1.25E-02  0.00000
   1372.   7.289  3.76E-06  7.07E-04  4.09E-13  7.71E-11  0.00E+00  0.00E+00  3.76E-06  7.07E-04  1.25E-02  0.00000
   1374.   7.278  3.73E-06  7.04E-04  3.55E-18  6.70E-16  0.00E+00  0.00E+00  3.73E-06  7.04E-04  1.25E-02  0.00000
   1376.   7.267  3.70E-06  7.01E-04  1.84E-14  3.49E-12  0.00E+00  0.00E+00  3.70E-06  7.01E-04  1.26E-02  0.00000
   1378.   7.257  3.71E-06  7.04E-04  4.05E-14  7.68E-12  0.00E+00  0.00E+00  3.71E-06  7.04E-04  1.26E-02  0.00000
   1380.   7.246  3.70E-06  7.05E-04  9.48E-11  1.80E-08  0.00E+00  0.00E+00  3.70E-06  7.05E-04  1.26E-02  0.00002
   1382.   7.236  3.70E-06  7.06E-04  1.65E-10  3.16E-08  0.00E+00  0.00E+00  3.70E-06  7.06E-04  1.26E-02  0.00004
   1384.   7.225  3.66E-06  7.02E-04  3.32E-11  6.35E-09  0.00E+00  0.00E+00  3.66E-06  7.02E-04  1.26E-02  0.00001
   1386.   7.215  3.61E-06  6.94E-04  4.51E-15  8.67E-13  0.00E+00  0.00E+00  3.61E-06  6.94E-04  1.26E-02  0.00000
   1388.   7.205  3.59E-06  6.91E-04  2.96E-17  5.70E-15  0.00E+00  0.00E+00  3.59E-06  6.91E-04  1.26E-02  0.00000
   1390.   7.194  3.57E-06  6.90E-04  2.49E-16  4.81E-14  0.00E+00  0.00E+00  3.57E-06  6.90E-04  1.26E-02  0.00000
   1392.   7.184  3.55E-06  6.88E-04  6.02E-17  1.17E-14  0.00E+00  0.00E+00  3.55E-06  6.88E-04  1.26E-02  0.00000
   1394.   7.174  3.52E-06  6.85E-04  4.20E-19  8.17E-17  0.00E+00  0.00E+00  3.52E-06  6.85E-04  1.26E-02  0.00000
   1396.   7.163  3.50E-06  6.82E-04  9.54E-26  1.86E-23  0.00E+00  0.00E+00  3.50E-06  6.82E-04  1.26E-02  0.00000
   1398.   7.153  3.48E-06  6.80E-04  6.99E-16  1.37E-13  0.00E+00  0.00E+00  3.48E-06  6.80E-04  1.26E-02  0.00000
1                                             RADIANCE(WATTS/CM2-STER-XXX)
0  FREQ   WAVLEN    PATH THERMAL      SURFACE EMISSION    SURFACE REFLECTED     TOTAL RADIANCE   INTEGRAL    TOTAL
  (CM-1) (MICRN)    (CM-1)   (MICRN)    (CM-1)   (MICRN)    (CM-1)   (MICRN)    (CM-1)   (MICRN)    (CM-1)   TRANS

   1400.   7.143  3.47E-06  6.80E-04  6.99E-16  1.37E-13  0.00E+00  0.00E+00  3.47E-06  6.80E-04  1.26E-02  0.00000
   1402.   7.133  3.46E-06  6.80E-04  6.11E-16  1.20E-13  0.00E+00  0.00E+00  3.46E-06  6.80E-04  1.26E-02  0.00000
   1404.   7.123  3.44E-06  6.78E-04  2.03E-13  3.99E-11  0.00E+00  0.00E+00  3.44E-06  6.78E-04  1.27E-02  0.00000
   1406.   7.112  3.42E-06  6.77E-04  2.26E-13  4.47E-11  0.00E+00  0.00E+00  3.42E-06  6.77E-04  1.27E-02  0.00000
   1408.   7.102  3.42E-06  6.78E-04  1.94E-12  3.85E-10  0.00E+00  0.00E+00  3.42E-06  6.78E-04  1.27E-02  0.00000
   1410.   7.092  3.39E-06  6.75E-04  3.25E-14  6.46E-12  0.00E+00  0.00E+00  3.39E-06  6.75E-04  1.27E-02  0.00000
   1412.   7.082  3.37E-06  6.72E-04  8.79E-14  1.75E-11  0.00E+00  0.00E+00  3.37E-06  6.72E-04  1.27E-02  0.00000
   1414.   7.072  3.36E-06  6.71E-04  9.70E-14  1.94E-11  0.00E+00  0.00E+00  3.36E-06  6.71E-04  1.27E-02  0.00000
   1416.   7.062  3.32E-06  6.65E-04  7.04E-18  1.41E-15  0.00E+00  0.00E+00  3.32E-06  6.65E-04  1.27E-02  0.00000
   1418.   7.052  3.29E-06  6.62E-04  5.84E-37  1.17E-34  0.00E+00  0.00E+00  3.29E-06  6.62E-04  1.27E-02  0.00000
   1420.   7.042  3.28E-06  6.61E-04  0.00E+00  0.00E+00  0.00E+00  0.00E+00  3.28E-06  6.61E-04  1.27E-02  0.00000
   1422.   7.032  3.26E-06  6.59E-04  1.26E-28  2.55E-26  0.00E+00  0.00E+00  3.26E-06  6.59E-04  1.27E-02  0.00000
   1424.   7.022  3.24E-06  6.57E-04  3.49E-20  7.07E-18  0.00E+00  0.00E+00  3.24E-06  6.57E-04  1.27E-02  0.00000
   1426.   7.013  3.23E-06  6.56E-04  2.00E-18  4.06E-16  0.00E+00  0.00E+00  3.23E-06  6.56E-04  1.27E-02  0.00000
   1428.   7.003  3.21E-06  6.55E-04  1.53E-18  3.12E-16  0.00E+00  0.00E+00  3.21E-06  6.55E-04  1.27E-02  0.00000
   1430.   6.993  3.19E-06  6.53E-04  1.48E-16  3.02E-14  0.00E+00  0.00E+00  3.19E-06  6.53E-04  1.27E-02  0.00000
   1432.   6.983  3.17E-06  6.50E-04  3.72E-22  7.62E-20  0.00E+00  0.00E+00  3.17E-06  6.50E-04  1.27E-02  0.00000
   1434.   6.974  3.15E-06  6.48E-04  5.25E-24  1.08E-21  0.00E+00  0.00E+00  3.15E-06  6.48E-04  1.27E-02  0.00000
   1436.   6.964  3.13E-06  6.46E-04  0.00E+00  0.00E+00  0.00E+00  0.00E+00  3.13E-06  6.46E-04  1.28E-02  0.00000
   1438.   6.954  3.12E-06  6.44E-04  7.50E-29  1.55E-26  0.00E+00  0.00E+00  3.12E-06  6.44E-04  1.28E-02  0.00000
   1440.   6.944  3.10E-06  6.44E-04  2.81E-18  5.82E-16  0.00E+00  0.00E+00  3.10E-06  6.44E-04  1.28E-02  0.00000
   1442.   6.935  3.10E-06  6.44E-04  5.81E-16  1.21E-13  0.00E+00  0.00E+00  3.10E-06  6.44E-04  1.28E-02  0.00000
   1444.   6.925  3.08E-06  6.42E-04  1.03E-15  2.14E-13  0.00E+00  0.00E+00  3.08E-06  6.42E-04  1.28E-02  0.00000
   1446.   6.916  3.05E-06  6.37E-04  1.66E-19  3.48E-17  0.00E+00  0.00E+00  3.05E-06  6.37E-04  1.28E-02  0.00000
   1448.   6.906  3.03E-06  6.36E-04  8.42E-18  1.77E-15  0.00E+00  0.00E+00  3.03E-06  6.36E-04  1.28E-02  0.00000
   1450.   6.897  3.01E-06  6.33E-04  5.24E-23  1.10E-20  0.00E+00  0.00E+00  3.01E-06  6.33E-04  1.28E-02  0.00000
   1452.   6.887  2.99E-06  6.31E-04  2.89E-25  6.08E-23  0.00E+00  0.00E+00  2.99E-06  6.31E-04  1.28E-02  0.00000
   1454.   6.878  2.98E-06  6.29E-04  3.23E-41  6.83E-39  0.00E+00  0.00E+00  2.98E-06  6.29E-04  1.28E-02  0.00000
   1456.   6.868  2.96E-06  6.28E-04  0.00E+00  0.00E+00  0.00E+00  0.00E+00  2.96E-06  6.28E-04  1.28E-02  0.00000
   1458.   6.859  2.95E-06  6.26E-04  0.00E+00  0.00E+00  0.00E+00  0.00E+00  2.95E-06  6.26E-04  1.28E-02  0.00000
   1460.   6.849  2.93E-06  6.24E-04  1.13E-36  2.41E-34  0.00E+00  0.00E+00  2.93E-06  6.24E-04  1.28E-02  0.00000
   1462.   6.840  2.90E-06  6.21E-04  7.20E-32  1.54E-29  0.00E+00  0.00E+00  2.90E-06  6.21E-04  1.28E-02  0.00000
   1464.   6.831  2.89E-06  6.20E-04  7.61E-22  1.63E-19  0.00E+00  0.00E+00  2.89E-06  6.20E-04  1.28E-02  0.00000
   1466.   6.821  2.88E-06  6.19E-04  7.61E-22  1.64E-19  0.00E+00  0.00E+00  2.88E-06  6.19E-04  1.28E-02  0.00000
   1468.   6.812  2.86E-06  6.16E-04  2.17E-28  4.67E-26  0.00E+00  0.00E+00  2.86E-06  6.16E-04  1.29E-02  0.00000
   1470.   6.803  2.84E-06  6.14E-04  5.07E-29  1.10E-26  0.00E+00  0.00E+00  2.84E-06  6.14E-04  1.29E-02  0.00000
   1472.   6.793  2.83E-06  6.13E-04  0.00E+00  0.00E+00  0.00E+00  0.00E+00  2.83E-06  6.13E-04  1.29E-02  0.00000
   1474.   6.784  2.81E-06  6.11E-04  0.00E+00  0.00E+00  0.00E+00  0.00E+00  2.81E-06  6.11E-04  1.29E-02  0.00000
   1476.   6.775  2.79E-06  6.09E-04  4.44E-37  9.67E-35  0.00E+00  0.00E+00  2.79E-06  6.09E-04  1.29E-02  0.00000
   1478.   6.766  2.78E-06  6.07E-04  2.31E-25  5.04E-23  0.00E+00  0.00E+00  2.78E-06  6.07E-04  1.29E-02  0.00000
   1480.   6.757  2.76E-06  6.05E-04  8.46E-25  1.85E-22  0.00E+00  0.00E+00  2.76E-06  6.05E-04  1.29E-02  0.00000
   1482.   6.748  2.75E-06  6.04E-04  1.79E-24  3.93E-22  0.00E+00  0.00E+00  2.75E-06  6.04E-04  1.29E-02  0.00000
   1484.   6.739  2.73E-06  6.02E-04  1.64E-24  3.62E-22  0.00E+00  0.00E+00  2.73E-06  6.02E-04  1.29E-02  0.00000
   1486.   6.729  2.72E-06  6.00E-04  1.51E-30  3.34E-28  0.00E+00  0.00E+00  2.72E-06  6.00E-04  1.29E-02  0.00000
   1488.   6.720  2.70E-06  5.98E-04  1.13E-35  2.50E-33  0.00E+00  0.00E+00  2.70E-06  5.98E-04  1.29E-02  0.00000
   1490.   6.711  2.69E-06  5.97E-04  0.00E+00  0.00E+00  0.00E+00  0.00E+00  2.69E-06  5.97E-04  1.29E-02  0.00000
   1492.   6.702  2.67E-06  5.94E-04  1.62E-38  3.61E-36  0.00E+00  0.00E+00  2.67E-06  5.94E-04  1.29E-02  0.00000
   1494.   6.693  2.65E-06  5.93E-04  1.62E-38  3.62E-36  0.00E+00  0.00E+00  2.65E-06  5.93E-04  1.29E-02  0.00000
   1496.   6.684  2.64E-06  5.91E-04  2.39E-31  5.34E-29  0.00E+00  0.00E+00  2.64E-06  5.91E-04  1.29E-02  0.00000
   1498.   6.676  2.62E-06  5.89E-04  1.46E-41  3.28E-39  0.00E+00  0.00E+00  2.62E-06  5.89E-04  1.29E-02  0.00000
1                                             RADIANCE(WATTS/CM2-STER-XXX)
0  FREQ   WAVLEN    PATH THERMAL      SURFACE EMISSION    SURFACE REFLECTED     TOTAL RADIANCE   INTEGRAL    TOTAL
  (CM-1) (MICRN)    (CM-1)   (MICRN)    (CM-1)   (MICRN)    (CM-1)   (MICRN)    (CM-1)   (MICRN)    (CM-1)   TRANS

   1500.   6.667  2.61E-06  5.87E-04  1.46E-41  3.29E-39  0.00E+00  0.00E+00  2.61E-06  5.87E-04  1.29E-02  0.00000
0INTEGRATED ABSORPTION FROM  100 TO 1500 CM-1 =   1072.10 CM-1
 AVERAGE TRANSMITTANCE =0.2342

0INTEGRATED RADIANCE =  1.294E-02 WATTS CM-2 STER-1
 MINIMUM RADIANCE    =  1.887E-06 WATTS CM-2 STER-1 (CM-1)-1 AT      100.0 CM-1
 MAXIMUM RADIANCE    =  1.468E-05 WATTS CM-2 STER-1 (CM-1)-1 AT      588.0 CM-1
 BOUNDARY TEMPERATURE =     299.70 K
 BOUNDARY EMISSIVITY =       0.980
0 CARD 5 *****    0
