*****  MODTRAN3 Version 1.3  12/1/95  *****
0 CARD 1  *****T   1    3    1    0    0    0    0    0    0    0    0    0   -1   0.000  -1.00
0 CARD 2  *****    2    0    0    0    0    0     0.000     0.000     0.000     0.000     0.000
0 CARD 3  *****     0.001     0.000     0.000     0.000     0.000     0.000    0
0 CARD 4  *****       100      1500         2         2
0 PROGRAM WILL COMPUTE RADIANCE                
0 ATMOSPHERIC MODEL
          TEMPERATURE =    1     TROPICAL MODEL      
          WATER VAPOR =    1     TROPICAL MODEL      
          OZONE       =    1     TROPICAL MODEL      
                      M4 =     1 M5 =     1 M6 =     1 MDEF =     1
0 AEROSOL MODEL
          REGIME                  AEROSOL TYPE             PROFILE                  SEASON

          BOUNDARY LAYER (0-2 KM) RURAL                      5.0 KM VIS AT SEA LEVEL
          TROPOSPHERE  (2-10KM)   TROPOSPHERIC             TROPOSPHERIC             SPRING-SUMMER       
          STRATOSPHERE (10-30KM)  BACKGROUND STRATO        BACKGROUND STRATO        SPRING-SUMMER       
          UPPER ATMOS (30-100KM)  METEORIC DUST            NORMAL              
0 SLANT PATH TO SPACE
          H1    =      0.001 KM
          HMIN  =      0.000 KM
          ANGLE =      0.000 DEG
0 FREQUENCY RANGE
             IV1 =       100 CM-1  (    100.00 MICROMETERS)
             IV2 =      1500 CM-1  (      6.67 MICROMETERS)
             IDV =         2 CM-1
           IFWHM =         2 CM-1
1
  ATMOSPHERIC PROFILES

   I     Z       P       T        N2       CNTMSLF MOL SCAT     N-1     O3 (UV)  O2 (UV)
        (KM)    (MB)    (K)            (MOL/CM2 KM)   (-)       (-)  (ATM CM/KM) (ATM CM/KM)

   1     0.00 1013.000  299.7  7.622E-01 0.000E+00 9.112E-01 2.620E-04 2.612E-03 3.342E+04
   2     1.00  904.000  293.7  6.321E-01 0.000E+00 8.298E-01 2.386E-04 2.612E-03 2.927E+04
   3     2.00  805.000  287.7  5.223E-01 0.000E+00 7.543E-01 2.169E-04 2.519E-03 2.562E+04
   4     3.00  715.000  283.7  4.238E-01 0.000E+00 6.794E-01 1.954E-04 2.379E-03 2.219E+04
   5     4.00  633.000  277.0  3.484E-01 0.000E+00 6.160E-01 1.772E-04 2.192E-03 1.945E+04
   6     5.00  559.000  270.3  2.853E-01 0.000E+00 5.575E-01 1.603E-04 2.099E-03 1.703E+04
   7     6.00  492.000  263.6  2.324E-01 0.000E+00 5.032E-01 1.447E-04 2.006E-03 1.490E+04
   8     7.00  432.000  257.0  1.885E-01 0.000E+00 4.531E-01 1.303E-04 1.912E-03 1.302E+04
   9     8.00  378.000  250.3  1.522E-01 0.000E+00 4.071E-01 1.171E-04 1.819E-03 1.138E+04
  10     9.00  329.000  243.6  1.217E-01 0.000E+00 3.641E-01 1.047E-04 1.819E-03 9.902E+03
  11    10.00  286.000  237.0  9.716E-02 0.000E+00 3.253E-01 9.356E-05 1.819E-03 8.629E+03
  12    11.00  247.000  230.1  7.688E-02 1.299E+15 2.894E-01 8.322E-05 1.912E-03 7.496E+03
  13    12.00  213.000  223.6  6.054E-02 1.618E+14 2.568E-01 7.385E-05 2.006E-03 6.507E+03
  14    13.00  182.000  217.0  4.693E-02 1.456E+13 2.261E-01 6.502E-05 2.099E-03 5.608E+03
  15    14.00  156.000  210.3  3.671E-02 4.497E+12 2.000E-01 5.751E-05 2.098E-03 4.870E+03
  16    15.00  132.000  203.7  2.802E-02 1.419E+12 1.747E-01 5.024E-05 2.193E-03 4.178E+03
  17    16.00  111.000  197.0  2.118E-02 6.036E+11 1.519E-01 4.368E-05 2.192E-03 3.572E+03
  18    17.00   93.700  194.8  1.544E-02 4.110E+11 1.297E-01 3.729E-05 3.240E-03 3.000E+03
  19    18.00   78.900  198.8  1.051E-02 2.516E+11 1.070E-01 3.077E-05 5.346E-03 2.433E+03
  20    19.00   66.600  202.7  7.202E-03 1.542E+11 8.857E-02 2.547E-05 8.409E-03 1.986E+03
  21    20.00   56.500  206.7  4.985E-03 1.067E+11 7.369E-02 2.119E-05 1.031E-02 1.633E+03
  22    21.00   48.000  210.7  3.463E-03 7.699E+10 6.141E-02 1.766E-05 1.105E-02 1.348E+03
  23    22.00   40.900  214.6  2.423E-03 6.016E+10 5.138E-02 1.478E-05 1.232E-02 1.119E+03
  24    23.00   35.000  217.0  1.736E-03 4.622E+10 4.348E-02 1.250E-05 1.477E-02 9.409E+02
  25    24.00   30.000  219.2  1.250E-03 4.052E+10 3.689E-02 1.061E-05 1.585E-02 7.942E+02
  26    25.00   25.700  221.4  8.990E-04 3.007E+10 3.129E-02 8.999E-06 1.689E-02 6.705E+02
  27    30.00   12.200  232.3  1.840E-04 9.323E+09 1.416E-02 4.072E-06 1.316E-02 2.992E+02
  28    35.00    6.000  243.1  4.064E-05 2.723E+09 6.654E-03 1.913E-06 6.450E-03 1.397E+02
  29    40.00    3.050  254.0  9.620E-06 8.236E+08 3.237E-03 9.309E-07 2.426E-03 6.779E+01
  30    45.00    1.590  264.8  2.405E-06 2.475E+08 1.619E-03 4.655E-07 7.279E-04 3.385E+01
  31    50.00    0.854  270.2  6.665E-07 7.597E+07 8.520E-04 2.450E-07 2.384E-04 1.781E+01
  32    70.00    0.058  218.9  4.684E-09 3.003E+05 7.143E-05 2.054E-08 2.141E-06 1.492E+00
  33   100.00    0.000  190.7  1.532E-13 7.763E-02 4.085E-07 1.175E-10 1.633E-08 6.532E-03
1
  ATMOSPHERIC PROFILES

   I     Z       P       T      CNTMFRN     HNO3    AEROSOL 1 AEROSOL 2 AEROSOL 3 AEROSOL 4 AER1*RH   CIRRUS         RH
        (KM)    (MB)    (K)   MOL/CM2 KM ATM CM/KM   (-)       (-)       (-)       (-)       (-)       (-)      (PERCNT)

   1     0.00 1013.000  299.7  0.000E+00 4.556E-06 7.700E-01 0.000E+00 0.000E+00 0.000E+00 3.546E+00 0.000E+00 0.000E+00
   2     1.00  904.000  293.7  0.000E+00 4.945E-06 7.700E-01 0.000E+00 0.000E+00 0.000E+00 3.546E+00 0.000E+00 0.000E+00
   3     2.00  805.000  287.7  0.000E+00 5.227E-06 6.210E-02 0.000E+00 0.000E+00 0.000E+00 2.860E-01 0.000E+00 0.000E+00
   4     3.00  715.000  283.7  0.000E+00 5.374E-06 0.000E+00 3.460E-02 0.000E+00 0.000E+00 0.000E+00 0.000E+00 0.000E+00
   5     4.00  633.000  277.0  0.000E+00 5.464E-06 0.000E+00 1.850E-02 0.000E+00 0.000E+00 0.000E+00 0.000E+00 0.000E+00
   6     5.00  559.000  270.3  0.000E+00 5.436E-06 0.000E+00 9.310E-03 0.000E+00 0.000E+00 0.000E+00 0.000E+00 0.000E+00
   7     6.00  492.000  263.6  0.000E+00 5.585E-06 0.000E+00 7.710E-03 0.000E+00 0.000E+00 0.000E+00 0.000E+00 0.000E+00
   8     7.00  432.000  257.0  0.000E+00 5.710E-06 0.000E+00 6.230E-03 0.000E+00 0.000E+00 0.000E+00 0.000E+00 0.000E+00
   9     8.00  378.000  250.3  0.000E+00 5.659E-06 0.000E+00 3.370E-03 0.000E+00 0.000E+00 0.000E+00 0.000E+00 0.000E+00
  10     9.00  329.000  243.6  0.000E+00 5.571E-06 0.000E+00 1.820E-03 0.000E+00 0.000E+00 0.000E+00 0.000E+00 0.000E+00
  11    10.00  286.000  237.0  0.000E+00 5.660E-06 0.000E+00 1.140E-03 0.000E+00 0.000E+00 0.000E+00 0.000E+00 0.000E+00
  12    11.00  247.000  230.1  1.780E+19 5.845E-06 0.000E+00 0.000E+00 7.990E-04 0.000E+00 0.000E+00 0.000E+00 1.315E+01
  13    12.00  213.000  223.6  5.573E+18 6.189E-06 0.000E+00 0.000E+00 6.410E-04 0.000E+00 0.000E+00 0.000E+00 9.253E+00
  14    13.00  182.000  217.0  1.472E+18 6.240E-06 0.000E+00 0.000E+00 5.170E-04 0.000E+00 0.000E+00 0.000E+00 5.881E+00
  15    14.00  156.000  210.3  7.236E+17 6.659E-06 0.000E+00 0.000E+00 4.420E-04 0.000E+00 0.000E+00 0.000E+00 7.410E+00
  16    15.00  132.000  203.7  3.551E+17 7.896E-06 0.000E+00 0.000E+00 3.950E-04 0.000E+00 0.000E+00 0.000E+00 9.923E+00
  17    16.00  111.000  197.0  2.014E+17 1.119E-05 0.000E+00 0.000E+00 3.820E-04 0.000E+00 0.000E+00 0.000E+00 1.677E+01
  18    17.00   93.700  194.8  1.419E+17 1.699E-05 0.000E+00 0.000E+00 4.250E-04 0.000E+00 0.000E+00 0.000E+00 1.924E+01
  19    18.00   78.900  198.8  9.158E+16 2.257E-05 0.000E+00 0.000E+00 5.200E-04 0.000E+00 0.000E+00 0.000E+00 8.321E+00
  20    19.00   66.600  202.7  5.934E+16 2.808E-05 0.000E+00 0.000E+00 5.810E-04 0.000E+00 0.000E+00 0.000E+00 3.752E+00
  21    20.00   56.500  206.7  4.107E+16 3.095E-05 0.000E+00 0.000E+00 5.890E-04 0.000E+00 0.000E+00 0.000E+00 1.818E+00
  22    21.00   48.000  210.7  2.908E+16 3.034E-05 0.000E+00 0.000E+00 5.020E-04 0.000E+00 0.000E+00 0.000E+00 9.217E-01
  23    22.00   40.900  214.6  2.150E+16 2.805E-05 0.000E+00 0.000E+00 4.200E-04 0.000E+00 0.000E+00 0.000E+00 5.033E-01
  24    23.00   35.000  217.0  1.595E+16 2.496E-05 0.000E+00 0.000E+00 3.000E-04 0.000E+00 0.000E+00 0.000E+00 3.313E-01
  25    24.00   30.000  219.2  1.267E+16 2.155E-05 0.000E+00 0.000E+00 1.980E-04 0.000E+00 0.000E+00 0.000E+00 2.401E-01
  26    25.00   25.700  221.4  9.258E+15 1.756E-05 0.000E+00 0.000E+00 1.310E-04 0.000E+00 0.000E+00 0.000E+00 1.611E-01
  27    30.00   12.200  232.3  2.333E+15 5.295E-06 0.000E+00 0.000E+00 3.320E-05 0.000E+00 0.000E+00 0.000E+00 2.817E-02
  28    35.00    6.000  243.1  5.924E+14 1.091E-06 0.000E+00 0.000E+00 0.000E+00 1.640E-05 0.000E+00 0.000E+00 5.440E-03
  29    40.00    3.050  254.0  1.585E+14 1.725E-07 0.000E+00 0.000E+00 0.000E+00 7.990E-06 0.000E+00 0.000E+00 1.173E-03
  30    45.00    1.590  264.8  4.345E+13 1.959E-08 0.000E+00 0.000E+00 0.000E+00 4.010E-06 0.000E+00 0.000E+00 2.777E-04
  31    50.00    0.854  270.2  1.267E+13 4.729E-09 0.000E+00 0.000E+00 0.000E+00 2.100E-06 0.000E+00 0.000E+00 1.041E-04
  32    70.00    0.058  218.9  6.679E+10 2.336E-10 0.000E+00 0.000E+00 0.000E+00 1.600E-07 0.000E+00 0.000E+00 6.767E-04
  33   100.00    0.000  190.7  1.942E+05 1.115E-12 0.000E+00 0.000E+00 0.000E+00 9.310E-10 0.000E+00 0.000E+00 1.583E-05
1
  ATMOSPHERIC PROFILES

   I      Z       P       T      H2O      O3       CO2      CO       CH4      N2O      O2       NH3      NO       NO2      SO2
         (KM)    (MB)    (K)  (                                 ATM CM/KM                                                     )
   1     0.00 1013.000  299.7  0.00E+00 2.61E-03 3.41E+01 1.37E-02 1.55E-01 2.91E-02 1.90E+04 4.55E-05 2.73E-05 2.09E-06 2.73E-05
   2     1.00  904.000  293.7  0.00E+00 2.61E-03 3.11E+01 1.20E-02 1.41E-01 2.65E-02 1.73E+04 4.15E-05 2.49E-05 1.91E-06 2.27E-05
   3     2.00  805.000  287.7  0.00E+00 2.52E-03 2.83E+01 1.05E-02 1.28E-01 2.41E-02 1.58E+04 3.49E-05 2.26E-05 1.73E-06 1.78E-05
   4     3.00  715.000  283.7  0.00E+00 2.38E-03 2.55E+01 9.16E-03 1.15E-01 2.17E-02 1.42E+04 2.58E-05 2.04E-05 1.56E-06 1.29E-05
   5     4.00  633.000  277.0  0.00E+00 2.19E-03 2.31E+01 8.08E-03 1.05E-01 1.97E-02 1.29E+04 1.77E-05 1.85E-05 1.42E-06 8.99E-06
   6     5.00  559.000  270.3  0.00E+00 2.10E-03 2.09E+01 7.26E-03 9.47E-02 1.78E-02 1.16E+04 1.14E-05 1.67E-05 1.28E-06 6.57E-06
   7     6.00  492.000  263.6  0.00E+00 2.01E-03 1.89E+01 6.48E-03 8.55E-02 1.61E-02 1.05E+04 7.34E-06 1.51E-05 1.16E-06 4.88E-06
   8     7.00  432.000  257.0  0.00E+00 1.91E-03 1.70E+01 5.65E-03 7.69E-02 1.45E-02 9.46E+03 4.47E-06 1.36E-05 1.04E-06 3.76E-06
   9     8.00  378.000  250.3  0.00E+00 1.82E-03 1.53E+01 4.82E-03 6.90E-02 1.30E-02 8.50E+03 2.64E-06 1.22E-05 9.36E-07 2.93E-06
  10     9.00  329.000  243.6  0.00E+00 1.82E-03 1.36E+01 3.98E-03 6.16E-02 1.16E-02 7.60E+03 1.37E-06 1.09E-05 8.44E-07 2.39E-06
  11    10.00  286.000  237.0  0.00E+00 1.82E-03 1.22E+01 3.24E-03 5.48E-02 1.03E-02 6.79E+03 6.60E-07 9.75E-06 7.74E-07 1.98E-06
  12    11.00  247.000  230.1  2.11E+00 1.91E-03 1.08E+01 2.59E-03 4.84E-02 9.08E-03 6.04E+03 3.15E-07 8.68E-06 7.58E-07 1.67E-06
  13    12.00  213.000  223.6  7.45E-01 2.01E-03 9.62E+00 2.01E-03 4.27E-02 7.94E-03 5.36E+03 1.62E-07 7.70E-06 8.08E-07 1.44E-06
  14    13.00  182.000  217.0  2.24E-01 2.10E-03 8.47E+00 1.44E-03 3.72E-02 6.89E-03 4.72E+03 7.05E-08 6.76E-06 1.01E-06 1.26E-06
  15    14.00  156.000  210.3  1.24E-01 2.10E-03 7.49E+00 1.00E-03 3.25E-02 5.99E-03 4.18E+03 2.22E-08 5.90E-06 1.49E-06 1.13E-06
  16    15.00  132.000  203.7  6.98E-02 2.19E-03 6.55E+00 6.88E-04 2.80E-02 5.14E-03 3.65E+03 7.80E-09 4.94E-06 2.99E-06 1.00E-06
  17    16.00  111.000  197.0  4.55E-02 2.19E-03 5.69E+00 4.66E-04 2.40E-02 4.37E-03 3.17E+03 3.20E-09 4.07E-06 4.84E-06 8.73E-07
  18    17.00   93.700  194.8  3.76E-02 3.24E-03 4.86E+00 3.23E-04 2.01E-02 3.61E-03 2.71E+03 1.43E-09 3.27E-06 6.73E-06 6.96E-07
  19    18.00   78.900  198.8  2.94E-02 5.35E-03 4.01E+00 2.10E-04 1.63E-02 2.86E-03 2.23E+03 7.16E-10 2.57E-06 8.24E-06 5.11E-07
  20    19.00   66.600  202.7  2.30E-02 8.41E-03 3.32E+00 1.37E-04 1.31E-02 2.24E-03 1.85E+03 3.51E-10 2.16E-06 9.38E-06 3.51E-07
  21    20.00   56.500  206.7  1.91E-02 1.03E-02 2.76E+00 9.80E-05 1.05E-02 1.74E-03 1.54E+03 1.77E-10 1.88E-06 1.02E-05 2.35E-07
  22    21.00   48.000  210.7  1.63E-02 1.10E-02 2.30E+00 7.56E-05 8.32E-03 1.35E-03 1.28E+03 1.18E-10 1.70E-06 1.08E-05 1.64E-07
  23    22.00   40.900  214.6  1.44E-02 1.23E-02 1.93E+00 6.33E-05 6.53E-03 1.05E-03 1.07E+03 8.83E-11 1.58E-06 1.11E-05 1.17E-07
  24    23.00   35.000  217.0  1.26E-02 1.48E-02 1.63E+00 5.68E-05 5.18E-03 8.55E-04 9.08E+02 6.91E-11 1.56E-06 1.12E-05 8.99E-08
  25    24.00   30.000  219.2  1.18E-02 1.59E-02 1.38E+00 5.16E-05 4.12E-03 6.91E-04 7.71E+02 5.31E-11 1.66E-06 1.13E-05 7.01E-08
  26    25.00   25.700  221.4  1.02E-02 1.69E-02 1.17E+00 4.76E-05 3.30E-03 5.49E-04 6.54E+02 3.85E-11 2.14E-06 1.17E-05 5.47E-08
  27    30.00   12.200  232.3  5.66E-03 1.32E-02 5.31E-01 2.82E-05 1.29E-03 2.00E-04 2.96E+02 8.98E-12 3.47E-06 8.72E-06 1.90E-08
  28    35.00    6.000  243.1  3.06E-03 6.45E-03 2.49E-01 1.65E-05 4.96E-04 6.17E-05 1.39E+02 1.21E-12 4.75E-06 4.84E-06 7.71E-09
  29    40.00    3.050  254.0  1.68E-03 2.43E-03 1.21E-01 1.00E-05 1.82E-04 1.46E-05 6.76E+01 9.51E-14 3.62E-06 1.30E-06 4.40E-09
  30    45.00    1.590  264.8  9.22E-04 7.28E-04 6.07E-02 6.45E-06 5.87E-05 2.57E-06 3.38E+01 4.82E-15 1.89E-06 1.86E-07 3.40E-09
  31    50.00    0.854  270.2  5.11E-04 2.38E-04 3.19E-02 4.34E-06 1.79E-05 4.05E-07 1.78E+01 6.07E-16 8.77E-07 3.77E-08 3.03E-09
  32    70.00    0.058  218.9  3.21E-05 2.14E-06 2.68E-03 1.38E-06 1.07E-06 8.20E-09 1.49E+00 1.83E-17 8.21E-08 1.65E-09 3.08E-10
  33   100.00    0.000  190.7  1.63E-08 1.63E-08 9.05E-06 6.96E-07 4.90E-09 1.36E-11 6.53E-03 6.04E-20 8.49E-08 6.94E-12 1.46E-14
1
  ATMOSPHERIC PROFILES

   I      Z       P       T     CFC-11   CFC-12   CFC-13   CFC-14   CFC-22   CFC-113  CFC-114  CFC-115  CLONO2    HNO4    CHCL2F 
                                 CCL4     N2O5  
         (KM)    (MB)    (K)  (                                 ATM CM/KM                                                     )
   1     0.00 1013.000  299.7  1.27E-05 2.19E-05 9.11E-14 9.11E-14 5.46E-06 1.73E-06 1.09E-06 9.11E-14 5.24E-07 3.95E-08 9.11E-14
                               1.18E-05 2.20E-11
   2     1.00  904.000  293.7  1.16E-05 1.99E-05 8.29E-14 8.29E-14 4.97E-06 1.58E-06 9.95E-07 8.29E-14 4.25E-07 1.77E-07 8.29E-14
                               1.08E-05 7.91E-11
   3     2.00  805.000  287.7  1.06E-05 1.81E-05 7.54E-14 7.54E-14 4.52E-06 1.43E-06 9.05E-07 7.54E-14 3.40E-07 2.89E-07 7.54E-14
                               9.80E-06 1.26E-10
   4     3.00  715.000  283.7  9.51E-06 1.63E-05 6.79E-14 6.79E-14 4.06E-06 1.29E-06 8.15E-07 6.79E-14 2.64E-07 3.76E-07 6.79E-14
                               8.83E-06 1.61E-10
   5     4.00  633.000  277.0  8.62E-06 1.48E-05 6.16E-14 6.16E-14 3.68E-06 1.17E-06 7.39E-07 6.16E-14 2.01E-07 4.46E-07 6.16E-14
                               8.00E-06 1.90E-10
   6     5.00  559.000  270.3  7.80E-06 1.34E-05 5.57E-14 5.57E-14 3.33E-06 1.06E-06 6.69E-07 5.57E-14 1.53E-07 1.01E-06 5.57E-14
                               7.23E-06 2.01E-10
   7     6.00  492.000  263.6  7.04E-06 1.21E-05 5.03E-14 5.03E-14 3.00E-06 9.55E-07 6.03E-07 5.03E-14 1.13E-07 1.46E-06 5.03E-14
                               6.51E-06 2.07E-10
   8     7.00  432.000  257.0  6.34E-06 1.09E-05 4.53E-14 4.53E-14 2.70E-06 8.60E-07 5.43E-07 4.53E-14 7.90E-08 1.81E-06 4.53E-14
                               5.86E-06 2.10E-10
   9     8.00  378.000  250.3  5.70E-06 9.76E-06 4.07E-14 4.07E-14 2.43E-06 7.73E-07 4.88E-07 4.07E-14 5.04E-08 2.07E-06 4.07E-14
                               5.25E-06 2.10E-10
  10     9.00  329.000  243.6  5.09E-06 8.72E-06 3.64E-14 3.64E-14 2.17E-06 6.91E-07 4.37E-07 3.64E-14 4.40E-08 1.79E-06 3.64E-14
                               4.69E-06 2.10E-10
  11    10.00  286.000  237.0  4.54E-06 7.79E-06 3.25E-14 3.25E-14 1.94E-06 6.16E-07 3.90E-07 3.25E-14 3.82E-08 1.54E-06 3.25E-14
                               4.19E-06 2.07E-10
  12    11.00  247.000  230.1  4.03E-06 6.92E-06 2.89E-14 2.89E-14 1.72E-06 5.47E-07 3.47E-07 2.89E-14 3.31E-08 1.32E-06 2.89E-14
                               3.73E-06 2.02E-10
  13    12.00  213.000  223.6  3.57E-06 6.13E-06 2.57E-14 2.57E-14 1.53E-06 4.85E-07 3.08E-07 2.57E-14 2.85E-08 1.12E-06 2.57E-14
                               3.31E-06 1.94E-10
  14    13.00  182.000  217.0  3.05E-06 5.32E-06 2.26E-14 2.26E-14 1.33E-06 4.19E-07 2.68E-07 2.26E-14 1.81E-07 1.28E-06 2.26E-14
                               2.82E-06 9.96E-09
  15    14.00  156.000  210.3  2.62E-06 4.64E-06 2.00E-14 2.00E-14 1.17E-06 3.64E-07 2.35E-07 2.00E-14 2.98E-07 1.39E-06 2.00E-14
                               2.42E-06 1.75E-08
  16    15.00  132.000  203.7  2.22E-06 3.99E-06 1.75E-14 1.75E-14 1.01E-06 3.12E-07 2.03E-07 1.75E-14 3.81E-07 1.44E-06 1.75E-14
                               2.04E-06 2.28E-08
  17    16.00  111.000  197.0  1.87E-06 3.42E-06 1.52E-14 1.52E-14 8.68E-07 2.66E-07 1.75E-07 1.52E-14 4.36E-07 1.44E-06 1.52E-14
                               1.72E-06 2.64E-08
  18    17.00   93.700  194.8  1.46E-06 2.78E-06 1.30E-14 1.30E-14 7.21E-07 2.14E-07 1.45E-07 1.30E-14 1.32E-06 1.85E-06 1.30E-14
                               1.32E-06 1.14E-07
  19    18.00   78.900  198.8  1.09E-06 2.19E-06 1.07E-14 1.07E-14 5.78E-07 1.66E-07 1.16E-07 1.07E-14 1.86E-06 2.03E-06 1.07E-14
                               9.69E-07 1.69E-07
  20    19.00   66.600  202.7  8.05E-07 1.72E-06 8.85E-15 8.85E-15 4.65E-07 1.29E-07 9.32E-08 8.85E-15 2.19E-06 2.10E-06 8.85E-15
                               7.03E-07 2.02E-07
  21    20.00   56.500  206.7  5.91E-07 1.35E-06 7.36E-15 7.36E-15 3.75E-07 1.00E-07 7.51E-08 7.36E-15 2.36E-06 2.10E-06 7.36E-15
                               5.02E-07 2.20E-07
  22    21.00   48.000  210.7  4.21E-07 1.05E-06 6.14E-15 6.14E-15 3.00E-07 7.60E-08 5.99E-08 6.14E-15 2.82E-06 2.16E-06 6.14E-15
                               3.51E-07 2.54E-07
  23    22.00   40.900  214.6  2.93E-07 8.11E-07 5.13E-15 5.13E-15 2.41E-07 5.73E-08 4.78E-08 5.13E-15 3.08E-06 2.15E-06 5.13E-15
                               2.37E-07 2.72E-07
  24    23.00   35.000  217.0  1.98E-07 6.30E-07 4.35E-15 4.35E-15 1.95E-07 4.32E-08 3.85E-08 4.35E-15 3.22E-06 2.11E-06 4.35E-15
                               1.52E-07 2.80E-07
  25    24.00   30.000  219.2  1.25E-07 4.87E-07 3.69E-15 3.69E-15 1.59E-07 3.21E-08 3.10E-08 3.69E-15 3.24E-06 2.04E-06 3.69E-15
                               8.85E-08 2.81E-07
  26    25.00   25.700  221.4  8.53E-08 3.72E-07 3.13E-15 3.13E-15 1.28E-07 2.38E-08 2.49E-08 3.13E-15 3.04E-06 1.82E-06 3.13E-15
                               5.89E-08 2.41E-07
  27    30.00   12.200  232.3  5.52E-09 8.33E-08 1.41E-15 1.41E-15 4.28E-08 4.12E-09 7.97E-09 1.41E-15 1.61E-06 7.22E-07 1.41E-15
                               2.48E-09 7.81E-08
  28    35.00    6.000  243.1  1.32E-10 1.42E-08 6.65E-16 6.65E-16 1.38E-08 4.77E-10 2.43E-09 6.65E-16 3.48E-07 9.77E-08 6.65E-16
                               2.63E-11 7.19E-09
  29    40.00    3.050  254.0  5.98E-13 1.97E-09 3.23E-16 3.23E-16 4.50E-09 3.98E-11 7.50E-10 3.23E-16 1.38E-08 3.22E-09 3.23E-16
                               1.28E-14 6.89E-11
  30    45.00    1.590  264.8  1.49E-14 3.45E-10 1.62E-16 1.62E-16 1.68E-09 5.20E-12 2.62E-10 1.62E-16 2.72E-10 1.41E-10 1.62E-16
                               9.01E-17 6.37E-13
  31    50.00    0.854  270.2  5.08E-16 7.25E-11 8.51E-17 8.51E-17 7.48E-10 8.43E-13 1.06E-10 8.51E-17 3.97E-12 6.50E-12 8.51E-17
                               9.31E-19 5.35E-15
  32    70.00    0.058  218.9  3.63E-21 2.79E-13 7.14E-18 7.14E-18 5.13E-11 1.25E-15 4.18E-12 7.14E-18 5.16E-19 2.29E-16 7.14E-18
                               7.05E-26 5.85E-23
  33   100.00    0.000  190.7  1.27E-30 1.01E-18 4.08E-20 4.08E-20 7.31E-14 5.35E-22 8.70E-16 4.08E-20 3.30E-35 1.36E-31 4.08E-20
                               2.08E-38 0.00E+00


 CASE 3A: GIVEN H1,H2=SPACE,ANGLE



 SLANT PATH PARAMETERS IN STANDARD FORM

          H1      =      0.001 KM
          H2      =    100.000 KM
          ANGLE   =      0.000 DEG
          PHI     =    180.000 DEG
          HMIN    =      0.001 KM
          LEN     =          0
1CALCULATION OF THE REFRACTED PATH THROUGH THE ATMOSPHERE


  I       ALTITUDE        THETA  DRANGE    RANGE    DBETA     BETA     PHI     DBEND  BENDING    PBAR    TBAR   RHOBAR
      FROM       TO
      (KM)      (KM)      (DEG)    (KM)     (KM)    (DEG)    (DEG)    (DEG)    (DEG)    (DEG)    (MB)    (K)  (GM CM-3)

          H1 TO H2

  1    0.001    1.000    0.000    0.999    0.999    0.000    0.000  180.000    0.000    0.000  958.259  296.73 1.12E-03
  2    1.000    2.000    0.000    1.000    1.999    0.000    0.000  180.000    0.000    0.000  854.330  290.74 1.02E-03
  3    2.000    3.000    0.000    1.000    2.999    0.000    0.000  180.000    0.000    0.000  759.895  285.73 9.26E-04
  4    3.000    4.000    0.000    1.000    3.999    0.000    0.000  180.000    0.000    0.000  673.837  280.39 8.36E-04
  5    4.000    5.000    0.000    1.000    4.999    0.000    0.000  180.000    0.000    0.000  595.849  273.69 7.58E-04
  6    5.000    6.000    0.000    1.000    5.999    0.000    0.000  180.000    0.000    0.000  525.360  266.99 6.85E-04
  7    6.000    7.000    0.000    1.000    6.999    0.000    0.000  180.000    0.000    0.000  461.873  260.34 6.17E-04
  8    7.000    8.000    0.000    1.000    7.999    0.000    0.000  180.000    0.000    0.000  404.881  253.70 5.55E-04
  9    8.000    9.000    0.000    1.000    8.999    0.000    0.000  180.000    0.000    0.000  353.389  247.00 4.98E-04
 10    9.000   10.000    0.000    1.000    9.999    0.000    0.000  180.000    0.000    0.000  307.402  240.35 4.45E-04
 11   10.000   11.000    0.000    1.000   10.999    0.000    0.000  180.000    0.000    0.000  266.404  233.60 3.97E-04
 12   11.000   12.000    0.000    1.000   11.999    0.000    0.000  180.000    0.000    0.000  229.919  226.90 3.52E-04
 13   12.000   13.000    0.000    1.000   12.999    0.000    0.000  180.000    0.000    0.000  197.423  220.35 3.12E-04
 14   13.000   14.000    0.000    1.000   13.999    0.000    0.000  180.000    0.000    0.000  168.932  213.70 2.75E-04
 15   14.000   15.000    0.000    1.000   14.999    0.000    0.000  180.000    0.000    0.000  143.936  207.06 2.42E-04
 16   15.000   16.000    0.000    1.000   15.999    0.000    0.000  180.000    0.000    0.000  121.442  200.41 2.11E-04
 17   16.000   17.000    0.000    1.000   16.999    0.000    0.000  180.000    0.000    0.000  102.334  195.93 1.82E-04
 18   17.000   18.000    0.000    1.000   17.999    0.000    0.000  180.000    0.000    0.000   86.325  196.73 1.52E-04
 19   18.000   19.000    0.000    1.000   18.999    0.000    0.000  180.000    0.000    0.000   72.770  200.68 1.26E-04
 20   19.000   20.000    0.000    1.000   19.999    0.000    0.000  180.000    0.000    0.000   61.566  204.63 1.05E-04
 21   20.000   21.000    0.000    1.000   20.999    0.000    0.000  180.000    0.000    0.000   52.264  208.63 8.71E-05
 22   21.000   22.000    0.000    1.000   21.999    0.000    0.000  180.000    0.000    0.000   44.461  212.59 7.27E-05
 23   22.000   23.000    0.000    1.000   22.999    0.000    0.000  180.000    0.000    0.000   37.955  215.76 6.11E-05
 24   23.000   24.000    0.000    1.000   23.999    0.000    0.000  180.000    0.000    0.000   32.504  218.07 5.18E-05
 25   24.000   25.000    0.000    1.000   24.999    0.000    0.000  180.000    0.000    0.000   27.854  220.27 4.40E-05
 26   25.000   30.000    0.000    5.000   29.999    0.000    0.000  180.000    0.000    0.000   19.003  226.09 2.79E-05
 27   30.000   35.000    0.000    5.000   34.999    0.000    0.000  180.000    0.000    0.000    9.123  236.99 1.28E-05
 28   35.000   40.000    0.000    5.000   39.999    0.000    0.000  180.000    0.000    0.000    4.536  247.86 6.13E-06
 29   40.000   45.000    0.000    5.000   44.999    0.000    0.000  180.000    0.000    0.000    2.325  258.74 3.02E-06
 30   45.000   50.000    0.000    5.000   49.999    0.000    0.000  180.000    0.000    0.000    1.223  267.20 1.54E-06
 31   50.000   70.000    0.000   20.000   69.999    0.000    0.000  180.000    0.000    0.000    0.445  253.37 4.07E-07
 32   70.000  100.000    0.000   30.000   99.999    0.000    0.000  180.000    0.000    0.000    0.029  213.36 1.78E-08




1CUMULATIVE ABSORBER AMOUNTS FOR THE PATH FROM H1 TO Z

  J     Z        TBAR     HNO3        O3 UV      CNTMSLF1   CNTMSLF2    CNTMFRN      O2
       (KM)       (K)   (ATM CM)    (ATM CM)    (MOL CM-2)  (MOL CM-2)  (MOL CM-2)(MOL CM-2)

  1    1.000   296.73   4.746E-06   2.610E-03   0.000E+00   0.000E+00   0.000E+00   3.127E+04
  2    2.000   290.74   9.832E-06   5.175E-03   0.000E+00   0.000E+00   0.000E+00   5.867E+04
  3    3.000   285.73   1.513E-05   7.623E-03   0.000E+00   0.000E+00   0.000E+00   8.253E+04
  4    4.000   280.39   2.055E-05   9.908E-03   0.000E+00   0.000E+00   0.000E+00   1.033E+05
  5    5.000   273.69   2.600E-05   1.205E-02   0.000E+00   0.000E+00   0.000E+00   1.215E+05
  6    6.000   266.99   3.151E-05   1.410E-02   0.000E+00   0.000E+00   0.000E+00   1.375E+05
  7    7.000   260.34   3.716E-05   1.606E-02   0.000E+00   0.000E+00   0.000E+00   1.514E+05
  8    8.000   253.70   4.284E-05   1.793E-02   0.000E+00   0.000E+00   0.000E+00   1.636E+05
  9    9.000   247.00   4.846E-05   1.975E-02   0.000E+00   0.000E+00   0.000E+00   1.742E+05
 10   10.000   240.35   5.407E-05   2.157E-02   0.000E+00   0.000E+00   0.000E+00   1.835E+05
 11   11.000   233.60   5.983E-05   2.343E-02   6.497E+14   1.126E+15   8.899E+18   1.915E+05
 12   12.000   226.90   6.584E-05   2.539E-02   1.196E+15   2.174E+15   1.943E+19   1.985E+05
 13   13.000   220.35   7.206E-05   2.744E-02   1.257E+15   2.303E+15   2.251E+19   2.046E+05
 14   14.000   213.70   7.851E-05   2.954E-02   1.265E+15   2.322E+15   2.356E+19   2.098E+05
 15   15.000   207.06   8.579E-05   3.169E-02   1.268E+15   2.329E+15   2.408E+19   2.143E+05
 16   16.000   200.41   9.533E-05   3.388E-02   1.269E+15   2.331E+15   2.435E+19   2.182E+05
 17   17.000   195.93   1.094E-04   3.660E-02   1.269E+15   2.333E+15   2.452E+19   2.214E+05
 18   18.000   196.73   1.292E-04   4.089E-02   1.270E+15   2.334E+15   2.463E+19   2.241E+05
 19   19.000   200.68   1.545E-04   4.777E-02   1.270E+15   2.334E+15   2.471E+19   2.263E+05
 20   20.000   204.63   1.840E-04   5.712E-02   1.270E+15   2.334E+15   2.476E+19   2.282E+05
 21   21.000   208.63   2.147E-04   6.780E-02   1.270E+15   2.335E+15   2.479E+19   2.296E+05
 22   22.000   212.59   2.439E-04   7.949E-02   1.270E+15   2.335E+15   2.482E+19   2.309E+05
 23   23.000   215.76   2.703E-04   9.304E-02   1.270E+15   2.335E+15   2.484E+19   2.319E+05
 24   24.000   218.07   2.936E-04   1.083E-01   1.270E+15   2.335E+15   2.485E+19   2.328E+05
 25   25.000   220.27   3.130E-04   1.247E-01   1.270E+15   2.335E+15   2.486E+19   2.335E+05
 26   30.000   226.09   3.642E-04   1.994E-01   1.271E+15   2.335E+15   2.489E+19   2.358E+05
 27   35.000   236.99   3.775E-04   2.465E-01   1.271E+15   2.335E+15   2.489E+19   2.368E+05
 28   40.000   247.86   3.800E-04   2.671E-01   1.271E+15   2.335E+15   2.490E+19   2.373E+05
 29   45.000   258.74   3.803E-04   2.741E-01   1.271E+15   2.335E+15   2.490E+19   2.376E+05
 30   50.000   267.20   3.804E-04   2.763E-01   1.271E+15   2.335E+15   2.490E+19   2.377E+05
 31   70.000   253.37   3.804E-04   2.773E-01   1.271E+15   2.335E+15   2.490E+19   2.378E+05
 32  100.000   213.36   3.804E-04   2.773E-01   1.271E+15   2.335E+15   2.490E+19   2.378E+05



1 J     Z       N2 CONT    MOL SCAT       AER 1       AER 2       AER 3       AER 4       CIRRUS
       (KM)

  1    1.000   6.944E-01   8.689E-01   7.692E-01   0.000E+00   0.000E+00   0.000E+00   0.000E+00
  2    2.000   1.270E+00   1.660E+00   1.050E+00   0.000E+00   0.000E+00   0.000E+00   0.000E+00
  3    3.000   1.741E+00   2.377E+00   1.081E+00   1.730E-02   0.000E+00   0.000E+00   0.000E+00
  4    4.000   2.126E+00   3.024E+00   1.081E+00   4.302E-02   0.000E+00   0.000E+00   0.000E+00
  5    5.000   2.442E+00   3.610E+00   1.081E+00   5.640E-02   0.000E+00   0.000E+00   0.000E+00
  6    6.000   2.700E+00   4.140E+00   1.081E+00   6.488E-02   0.000E+00   0.000E+00   0.000E+00
  7    7.000   2.910E+00   4.618E+00   1.081E+00   7.183E-02   0.000E+00   0.000E+00   0.000E+00
  8    8.000   3.079E+00   5.047E+00   1.081E+00   7.648E-02   0.000E+00   0.000E+00   0.000E+00
  9    9.000   3.216E+00   5.433E+00   1.081E+00   7.900E-02   0.000E+00   0.000E+00   0.000E+00
 10   10.000   3.325E+00   5.777E+00   1.081E+00   8.045E-02   0.000E+00   0.000E+00   0.000E+00
 11   11.000   3.411E+00   6.084E+00   1.081E+00   8.102E-02   3.995E-04   0.000E+00   0.000E+00
 12   12.000   3.480E+00   6.357E+00   1.081E+00   8.102E-02   1.117E-03   0.000E+00   0.000E+00
 13   13.000   3.533E+00   6.598E+00   1.081E+00   8.102E-02   1.693E-03   0.000E+00   0.000E+00
 14   14.000   3.575E+00   6.811E+00   1.081E+00   8.102E-02   2.172E-03   0.000E+00   0.000E+00
 15   15.000   3.607E+00   6.998E+00   1.081E+00   8.102E-02   2.590E-03   0.000E+00   0.000E+00
 16   16.000   3.631E+00   7.161E+00   1.081E+00   8.102E-02   2.978E-03   0.000E+00   0.000E+00
 17   17.000   3.649E+00   7.301E+00   1.081E+00   8.102E-02   3.382E-03   0.000E+00   0.000E+00
 18   18.000   3.662E+00   7.419E+00   1.081E+00   8.102E-02   3.854E-03   0.000E+00   0.000E+00
 19   19.000   3.671E+00   7.517E+00   1.081E+00   8.102E-02   4.405E-03   0.000E+00   0.000E+00
 20   20.000   3.677E+00   7.597E+00   1.081E+00   8.102E-02   4.990E-03   0.000E+00   0.000E+00
 21   21.000   3.681E+00   7.665E+00   1.081E+00   8.102E-02   5.534E-03   0.000E+00   0.000E+00
 22   22.000   3.684E+00   7.721E+00   1.081E+00   8.102E-02   5.994E-03   0.000E+00   0.000E+00
 23   23.000   3.686E+00   7.768E+00   1.081E+00   8.102E-02   6.351E-03   0.000E+00   0.000E+00
 24   24.000   3.688E+00   7.808E+00   1.081E+00   8.102E-02   6.596E-03   0.000E+00   0.000E+00
 25   25.000   3.689E+00   7.842E+00   1.081E+00   8.102E-02   6.758E-03   0.000E+00   0.000E+00
 26   30.000   3.691E+00   7.951E+00   1.081E+00   8.102E-02   7.115E-03   0.000E+00   0.000E+00
 27   35.000   3.691E+00   8.000E+00   1.081E+00   8.102E-02   7.198E-03   4.100E-05   0.000E+00
 28   40.000   3.692E+00   8.024E+00   1.081E+00   8.102E-02   7.198E-03   9.948E-05   0.000E+00
 29   45.000   3.692E+00   8.036E+00   1.081E+00   8.102E-02   7.198E-03   1.283E-04   0.000E+00
 30   50.000   3.692E+00   8.042E+00   1.081E+00   8.102E-02   7.198E-03   1.431E-04   0.000E+00
 31   70.000   3.692E+00   8.048E+00   1.081E+00   8.102E-02   7.198E-03   1.582E-04   0.000E+00
 32  100.000   3.692E+00   8.048E+00   1.081E+00   8.102E-02   7.198E-03   1.591E-04   0.000E+00



1  J    Z       H2O       O3        CO2       CO        CH4       N2O       O2        NH3       NO        NO2       SO2
      (KM)    (                                                      ATM CM                                             )

   1    1.00  0.00E+00  2.61E-03  3.26E+01  1.28E-02  1.48E-01  2.78E-02  1.81E+04  4.34E-05  2.61E-05  2.00E-06  2.49E-05
   2    2.00  0.00E+00  5.17E-03  6.22E+01  2.41E-02  2.82E-01  5.31E-02  3.47E+04  8.15E-05  4.98E-05  3.82E-06  4.51E-05
   3    3.00  0.00E+00  7.62E-03  8.91E+01  3.39E-02  4.04E-01  7.60E-02  4.96E+04  1.12E-04  7.12E-05  5.46E-06  6.03E-05
   4    4.00  0.00E+00  9.91E-03  1.13E+02  4.25E-02  5.14E-01  9.67E-02  6.32E+04  1.33E-04  9.07E-05  6.95E-06  7.11E-05
   5    5.00  0.00E+00  1.21E-02  1.35E+02  5.02E-02  6.13E-01  1.15E-01  7.54E+04  1.47E-04  1.08E-04  8.30E-06  7.88E-05
   6    6.00  0.00E+00  1.41E-02  1.55E+02  5.70E-02  7.03E-01  1.32E-01  8.65E+04  1.57E-04  1.24E-04  9.52E-06  8.45E-05
   7    7.00  0.00E+00  1.61E-02  1.73E+02  6.31E-02  7.84E-01  1.48E-01  9.64E+04  1.62E-04  1.38E-04  1.06E-05  8.88E-05
   8    8.00  0.00E+00  1.79E-02  1.89E+02  6.83E-02  8.57E-01  1.61E-01  1.05E+05  1.66E-04  1.51E-04  1.16E-05  9.21E-05
   9    9.00  0.00E+00  1.97E-02  2.04E+02  7.27E-02  9.23E-01  1.74E-01  1.13E+05  1.68E-04  1.63E-04  1.25E-05  9.48E-05
  10   10.00  0.00E+00  2.16E-02  2.16E+02  7.63E-02  9.81E-01  1.85E-01  1.21E+05  1.69E-04  1.73E-04  1.33E-05  9.70E-05
  11   11.00  1.06E+00  2.34E-02  2.28E+02  7.92E-02  1.03E+00  1.94E-01  1.27E+05  1.69E-04  1.82E-04  1.41E-05  9.88E-05
  12   12.00  2.37E+00  2.54E-02  2.38E+02  8.15E-02  1.08E+00  2.03E-01  1.33E+05  1.70E-04  1.91E-04  1.48E-05  1.00E-04
  13   13.00  2.80E+00  2.74E-02  2.47E+02  8.32E-02  1.12E+00  2.10E-01  1.38E+05  1.70E-04  1.98E-04  1.58E-05  1.02E-04
  14   14.00  2.97E+00  2.95E-02  2.55E+02  8.44E-02  1.15E+00  2.17E-01  1.42E+05  1.70E-04  2.04E-04  1.70E-05  1.03E-04
  15   15.00  3.07E+00  3.17E-02  2.62E+02  8.52E-02  1.18E+00  2.22E-01  1.46E+05  1.70E-04  2.10E-04  1.92E-05  1.04E-04
  16   16.00  3.12E+00  3.39E-02  2.68E+02  8.58E-02  1.21E+00  2.27E-01  1.50E+05  1.70E-04  2.14E-04  2.32E-05  1.05E-04
  17   17.00  3.16E+00  3.66E-02  2.74E+02  8.62E-02  1.23E+00  2.31E-01  1.52E+05  1.70E-04  2.18E-04  2.89E-05  1.06E-04
  18   18.00  3.20E+00  4.09E-02  2.78E+02  8.65E-02  1.25E+00  2.34E-01  1.55E+05  1.70E-04  2.21E-04  3.64E-05  1.06E-04
  19   19.00  3.22E+00  4.78E-02  2.82E+02  8.66E-02  1.26E+00  2.37E-01  1.57E+05  1.70E-04  2.23E-04  4.52E-05  1.07E-04
  20   20.00  3.24E+00  5.71E-02  2.85E+02  8.68E-02  1.28E+00  2.39E-01  1.59E+05  1.70E-04  2.25E-04  5.50E-05  1.07E-04
  21   21.00  3.26E+00  6.78E-02  2.87E+02  8.68E-02  1.28E+00  2.40E-01  1.60E+05  1.70E-04  2.27E-04  6.56E-05  1.07E-04
  22   22.00  3.28E+00  7.95E-02  2.89E+02  8.69E-02  1.29E+00  2.41E-01  1.61E+05  1.70E-04  2.28E-04  7.65E-05  1.07E-04
  23   23.00  3.29E+00  9.30E-02  2.91E+02  8.70E-02  1.30E+00  2.42E-01  1.62E+05  1.70E-04  2.30E-04  8.77E-05  1.07E-04
  24   24.00  3.30E+00  1.08E-01  2.93E+02  8.70E-02  1.30E+00  2.43E-01  1.63E+05  1.70E-04  2.32E-04  9.89E-05  1.08E-04
  25   25.00  3.31E+00  1.25E-01  2.94E+02  8.71E-02  1.31E+00  2.44E-01  1.64E+05  1.70E-04  2.33E-04  1.10E-04  1.08E-04
  26   30.00  3.35E+00  1.99E-01  2.98E+02  8.73E-02  1.32E+00  2.46E-01  1.66E+05  1.70E-04  2.47E-04  1.61E-04  1.08E-04
  27   35.00  3.37E+00  2.46E-01  3.00E+02  8.74E-02  1.32E+00  2.46E-01  1.67E+05  1.70E-04  2.68E-04  1.94E-04  1.08E-04
  28   40.00  3.38E+00  2.67E-01  3.01E+02  8.74E-02  1.32E+00  2.46E-01  1.68E+05  1.70E-04  2.89E-04  2.07E-04  1.08E-04
  29   45.00  3.39E+00  2.74E-01  3.01E+02  8.75E-02  1.32E+00  2.46E-01  1.68E+05  1.70E-04  3.02E-04  2.10E-04  1.08E-04
  30   50.00  3.39E+00  2.76E-01  3.01E+02  8.75E-02  1.32E+00  2.46E-01  1.68E+05  1.70E-04  3.09E-04  2.11E-04  1.08E-04
  31   70.00  3.40E+00  2.77E-01  3.02E+02  8.76E-02  1.32E+00  2.46E-01  1.68E+05  1.70E-04  3.15E-04  2.11E-04  1.08E-04
  32  100.00  3.40E+00  2.77E-01  3.02E+02  8.76E-02  1.32E+00  2.46E-01  1.68E+05  1.70E-04  3.18E-04  2.11E-04  1.08E-04



1  J    Z      CFC-11    CFC-12    CFC-13    CFC-14    CFC-22    CFC-113   CFC-114   CFC-115   CLONO2     HNO4     CHCL2F 
                CCL4      N2O5  
      (KM)    (                                                   ATM CM                                                )

   1    1.00  1.22E-05  2.08E-05  8.68E-14  8.68E-14  5.21E-06  1.65E-06  1.04E-06  8.68E-14  4.72E-07  1.08E-07  8.68E-14
              1.13E-05  5.05E-11
   2    2.00  2.32E-05  3.98E-05  1.66E-13  1.66E-13  9.95E-06  3.15E-06  1.99E-06  1.66E-13  8.53E-07  3.41E-07  1.66E-13
              2.16E-05  1.53E-10
   3    3.00  3.32E-05  5.70E-05  2.37E-13  2.37E-13  1.42E-05  4.51E-06  2.85E-06  2.37E-13  1.15E-06  6.74E-07  2.37E-13
              3.09E-05  2.96E-10
   4    4.00  4.23E-05  7.25E-05  3.02E-13  3.02E-13  1.81E-05  5.74E-06  3.63E-06  3.02E-13  1.38E-06  1.08E-06  3.02E-13
              3.93E-05  4.72E-10
   5    5.00  5.05E-05  8.66E-05  3.61E-13  3.61E-13  2.16E-05  6.85E-06  4.33E-06  3.61E-13  1.56E-06  1.81E-06  3.61E-13
              4.69E-05  6.68E-10
   6    6.00  5.79E-05  9.93E-05  4.14E-13  4.14E-13  2.48E-05  7.86E-06  4.96E-06  4.14E-13  1.69E-06  3.05E-06  4.14E-13
              5.38E-05  8.72E-10
   7    7.00  6.46E-05  1.11E-04  4.61E-13  4.61E-13  2.76E-05  8.77E-06  5.54E-06  4.61E-13  1.79E-06  4.69E-06  4.61E-13
              5.99E-05  1.08E-09
   8    8.00  7.06E-05  1.21E-04  5.04E-13  5.04E-13  3.02E-05  9.58E-06  6.05E-06  5.04E-13  1.85E-06  6.63E-06  5.04E-13
              6.55E-05  1.29E-09
   9    9.00  7.60E-05  1.30E-04  5.43E-13  5.43E-13  3.25E-05  1.03E-05  6.51E-06  5.43E-13  1.90E-06  8.55E-06  5.43E-13
              7.04E-05  1.50E-09
  10   10.00  8.08E-05  1.39E-04  5.77E-13  5.77E-13  3.45E-05  1.10E-05  6.93E-06  5.77E-13  1.94E-06  1.02E-05  5.77E-13
              7.49E-05  1.71E-09
  11   11.00  8.51E-05  1.46E-04  6.08E-13  6.08E-13  3.64E-05  1.15E-05  7.30E-06  6.08E-13  1.97E-06  1.16E-05  6.08E-13
              7.88E-05  1.91E-09
  12   12.00  8.89E-05  1.52E-04  6.35E-13  6.35E-13  3.80E-05  1.21E-05  7.62E-06  6.35E-13  2.01E-06  1.29E-05  6.35E-13
              8.24E-05  2.11E-09
  13   13.00  9.22E-05  1.58E-04  6.59E-13  6.59E-13  3.94E-05  1.25E-05  7.91E-06  6.59E-13  2.11E-06  1.41E-05  6.59E-13
              8.54E-05  7.19E-09
  14   14.00  9.50E-05  1.63E-04  6.81E-13  6.81E-13  4.07E-05  1.29E-05  8.16E-06  6.81E-13  2.35E-06  1.54E-05  6.81E-13
              8.80E-05  2.09E-08
  15   15.00  9.74E-05  1.67E-04  6.99E-13  6.99E-13  4.17E-05  1.32E-05  8.38E-06  6.99E-13  2.69E-06  1.68E-05  6.99E-13
              9.03E-05  4.10E-08
  16   16.00  9.95E-05  1.71E-04  7.16E-13  7.16E-13  4.27E-05  1.35E-05  8.57E-06  7.16E-13  3.10E-06  1.82E-05  7.16E-13
              9.21E-05  6.57E-08
  17   17.00  1.01E-04  1.74E-04  7.30E-13  7.30E-13  4.35E-05  1.38E-05  8.73E-06  7.30E-13  3.97E-06  1.99E-05  7.30E-13
              9.36E-05  1.36E-07
  18   18.00  1.02E-04  1.77E-04  7.41E-13  7.41E-13  4.41E-05  1.40E-05  8.86E-06  7.41E-13  5.56E-06  2.18E-05  7.41E-13
              9.48E-05  2.77E-07
  19   19.00  1.03E-04  1.79E-04  7.51E-13  7.51E-13  4.46E-05  1.41E-05  8.96E-06  7.51E-13  7.59E-06  2.39E-05  7.51E-13
              9.56E-05  4.63E-07
  20   20.00  1.04E-04  1.80E-04  7.59E-13  7.59E-13  4.51E-05  1.42E-05  9.05E-06  7.59E-13  9.86E-06  2.60E-05  7.59E-13
              9.62E-05  6.74E-07
  21   21.00  1.05E-04  1.81E-04  7.66E-13  7.66E-13  4.54E-05  1.43E-05  9.11E-06  7.66E-13  1.25E-05  2.81E-05  7.66E-13
              9.66E-05  9.11E-07
  22   22.00  1.05E-04  1.82E-04  7.72E-13  7.72E-13  4.57E-05  1.44E-05  9.17E-06  7.72E-13  1.54E-05  3.03E-05  7.72E-13
              9.69E-05  1.17E-06
  23   23.00  1.05E-04  1.83E-04  7.76E-13  7.76E-13  4.59E-05  1.44E-05  9.21E-06  7.76E-13  1.86E-05  3.24E-05  7.76E-13
              9.71E-05  1.45E-06
  24   24.00  1.05E-04  1.84E-04  7.80E-13  7.80E-13  4.61E-05  1.45E-05  9.24E-06  7.80E-13  2.18E-05  3.45E-05  7.80E-13
              9.72E-05  1.73E-06
  25   25.00  1.05E-04  1.84E-04  7.84E-13  7.84E-13  4.62E-05  1.45E-05  9.27E-06  7.84E-13  2.49E-05  3.64E-05  7.84E-13
              9.73E-05  1.99E-06
  26   30.00  1.06E-04  1.85E-04  7.95E-13  7.95E-13  4.66E-05  1.45E-05  9.35E-06  7.95E-13  3.62E-05  4.23E-05  7.95E-13
              9.74E-05  2.71E-06
  27   35.00  1.06E-04  1.85E-04  7.99E-13  7.99E-13  4.67E-05  1.46E-05  9.37E-06  7.99E-13  4.03E-05  4.39E-05  7.99E-13
              9.74E-05  2.86E-06
  28   40.00  1.06E-04  1.85E-04  8.02E-13  8.02E-13  4.68E-05  1.46E-05  9.38E-06  8.02E-13  4.08E-05  4.40E-05  8.02E-13
              9.74E-05  2.87E-06
  29   45.00  1.06E-04  1.85E-04  8.03E-13  8.03E-13  4.68E-05  1.46E-05  9.38E-06  8.03E-13  4.08E-05  4.40E-05  8.03E-13
              9.74E-05  2.87E-06
  30   50.00  1.06E-04  1.85E-04  8.04E-13  8.04E-13  4.68E-05  1.46E-05  9.38E-06  8.04E-13  4.08E-05  4.40E-05  8.04E-13
              9.74E-05  2.87E-06
  31   70.00  1.06E-04  1.85E-04  8.04E-13  8.04E-13  4.68E-05  1.46E-05  9.38E-06  8.04E-13  4.08E-05  4.40E-05  8.04E-13
              9.74E-05  2.87E-06
  32  100.00  1.06E-04  1.85E-04  8.04E-13  8.04E-13  4.68E-05  1.46E-05  9.38E-06  8.04E-13  4.08E-05  4.40E-05  8.04E-13
              9.74E-05  2.87E-06


0SUMMARY OF THE GEOMETRY CALCULATION

          H1      =      0.001 KM
          H2      =    100.000 KM
          ANGLE   =      0.000 DEG
          RANGE   =     99.999 KM
          BETA    =      0.000 DEG
          PHI     =    180.000 DEG
          HMIN    =      0.001 KM
          BENDING =      0.000 DEG
          LEN     =          0




1EQUIVALENT SEA LEVEL TOTAL ABSORBER AMOUNTS

                 HNO3      O3 UV       CNTMSLF1    CNTMSLF2   CNTMFRN
               (ATM CM)   (ATM CM)     (MOL CM-2)  (MOL CM-2)  (MOL CM-2)  (MOL CM-2)

             3.804E-04   2.773E-01   1.271E+15   2.335E+15   2.490E+19


              N2 CONT    MOL SCAT       AER 1       AER 2       AER 3       AER 4     CIRRUS      MEAN RH
                                                                                                  (PRCNT)

             3.692E+00   8.048E+00   1.081E+00   8.102E-02   7.198E-03   1.591E-04   0.000E+00        0.00


                 H2O        O3          CO2         CO          CH4         N2O          O2
               (                                        ATM CM                            )

             3.398E+00   2.773E-01   3.016E+02   8.758E-02   1.323E+00   2.463E-01   1.681E+05

                 NH3        NO          NO2         SO2
                 (               ATM CM               )

             1.697E-04   3.179E-04   2.111E-04   1.079E-04

             CFC-11      CFC-12      CFC-13      CFC-14      CFC-22      CFC-113     CFC-114
                 (                                      ATM CM                            )

             1.055E-04   1.851E-04   8.043E-13   8.043E-13   4.678E-05   1.455E-05   9.381E-06

             CFC-115     CLONO2       HNO4       CHCL2F       CCL4        N2O5  
                 (                                      ATM CM                            )

             8.043E-13   4.084E-05   4.403E-05   8.043E-13   9.739E-05   2.871E-06
1                                             RADIANCE(WATTS/CM2-STER-XXX)
0  FREQ   WAVLEN    PATH THERMAL      SURFACE EMISSION    SURFACE REFLECTED     TOTAL RADIANCE   INTEGRAL    TOTAL
  (CM-1) (MICRN)    (CM-1)   (MICRN)    (CM-1)   (MICRN)    (CM-1)   (MICRN)    (CM-1)   (MICRN)    (CM-1)   TRANS

    100. 100.000  1.40E-06  1.40E-06  0.00E+00  0.00E+00  0.00E+00  0.00E+00  1.40E-06  1.40E-06  1.40E-06  0.00594
    102.  98.039  1.17E-06  1.21E-06  0.00E+00  0.00E+00  0.00E+00  0.00E+00  1.17E-06  1.21E-06  3.73E-06  0.19044
    104.  96.154  1.24E-06  1.34E-06  0.00E+00  0.00E+00  0.00E+00  0.00E+00  1.24E-06  1.34E-06  6.22E-06  0.17911
    106.  94.340  1.41E-06  1.59E-06  0.00E+00  0.00E+00  0.00E+00  0.00E+00  1.41E-06  1.59E-06  9.04E-06  0.11281
    108.  92.593  9.48E-07  1.11E-06  0.00E+00  0.00E+00  0.00E+00  0.00E+00  9.48E-07  1.11E-06  1.09E-05  0.41137
    110.  90.909  8.79E-07  1.06E-06  0.00E+00  0.00E+00  0.00E+00  0.00E+00  8.79E-07  1.06E-06  1.27E-05  0.46216
    112.  89.286  1.17E-06  1.47E-06  0.00E+00  0.00E+00  0.00E+00  0.00E+00  1.17E-06  1.47E-06  1.50E-05  0.29891
    114.  87.719  3.99E-07  5.19E-07  0.00E+00  0.00E+00  0.00E+00  0.00E+00  3.99E-07  5.19E-07  1.58E-05  0.76931
    116.  86.207  5.94E-07  8.00E-07  0.00E+00  0.00E+00  0.00E+00  0.00E+00  5.94E-07  8.00E-07  1.70E-05  0.67511
    118.  84.746  1.13E-06  1.58E-06  0.00E+00  0.00E+00  0.00E+00  0.00E+00  1.13E-06  1.58E-06  1.93E-05  0.40140
    120.  83.333  1.54E-06  2.21E-06  0.00E+00  0.00E+00  0.00E+00  0.00E+00  1.54E-06  2.21E-06  2.24E-05  0.19602
    122.  81.967  1.81E-06  2.70E-06  0.00E+00  0.00E+00  0.00E+00  0.00E+00  1.81E-06  2.70E-06  2.60E-05  0.06589
    124.  80.645  1.15E-06  1.76E-06  0.00E+00  0.00E+00  0.00E+00  0.00E+00  1.15E-06  1.76E-06  2.83E-05  0.41491
    126.  79.365  1.80E-06  2.86E-06  0.00E+00  0.00E+00  0.00E+00  0.00E+00  1.80E-06  2.86E-06  3.19E-05  0.12059
    128.  78.125  1.61E-06  2.63E-06  0.00E+00  0.00E+00  0.00E+00  0.00E+00  1.61E-06  2.63E-06  3.51E-05  0.23594
    130.  76.923  1.15E-06  1.95E-06  0.00E+00  0.00E+00  0.00E+00  0.00E+00  1.15E-06  1.95E-06  3.74E-05  0.46702
    132.  75.758  2.03E-06  3.54E-06  0.00E+00  0.00E+00  0.00E+00  0.00E+00  2.03E-06  3.54E-06  4.15E-05  0.08252
    134.  74.627  1.57E-06  2.82E-06  0.00E+00  0.00E+00  0.00E+00  0.00E+00  1.57E-06  2.82E-06  4.46E-05  0.29419
    136.  73.529  9.03E-07  1.67E-06  0.00E+00  0.00E+00  0.00E+00  0.00E+00  9.03E-07  1.67E-06  4.64E-05  0.60253
    138.  72.464  1.76E-06  3.35E-06  0.00E+00  0.00E+00  0.00E+00  0.00E+00  1.76E-06  3.35E-06  4.99E-05  0.25159
    140.  71.429  2.30E-06  4.50E-06  0.00E+00  0.00E+00  0.00E+00  0.00E+00  2.30E-06  4.50E-06  5.45E-05  0.05276
    142.  70.423  1.30E-06  2.61E-06  0.00E+00  0.00E+00  0.00E+00  0.00E+00  1.30E-06  2.61E-06  5.71E-05  0.47697
    144.  69.444  6.81E-07  1.41E-06  0.00E+00  0.00E+00  0.00E+00  0.00E+00  6.81E-07  1.41E-06  5.85E-05  0.72890
    146.  68.493  8.67E-07  1.85E-06  0.00E+00  0.00E+00  0.00E+00  0.00E+00  8.67E-07  1.85E-06  6.02E-05  0.65932
    148.  67.568  1.80E-06  3.95E-06  0.00E+00  0.00E+00  0.00E+00  0.00E+00  1.80E-06  3.95E-06  6.38E-05  0.30615
    150.  66.667  2.69E-06  6.06E-06  0.00E+00  0.00E+00  0.00E+00  0.00E+00  2.69E-06  6.06E-06  6.92E-05  0.00288
    152.  65.789  2.66E-06  6.13E-06  0.00E+00  0.00E+00  0.00E+00  0.00E+00  2.66E-06  6.13E-06  7.45E-05  0.03172
    154.  64.935  2.18E-06  5.17E-06  0.00E+00  0.00E+00  0.00E+00  0.00E+00  2.18E-06  5.17E-06  7.89E-05  0.20869
    156.  64.103  1.82E-06  4.42E-06  0.00E+00  0.00E+00  0.00E+00  0.00E+00  1.82E-06  4.42E-06  8.25E-05  0.35146
    158.  63.291  2.22E-06  5.54E-06  0.00E+00  0.00E+00  0.00E+00  0.00E+00  2.22E-06  5.54E-06  8.69E-05  0.22808
    160.  62.500  1.20E-06  3.07E-06  0.00E+00  0.00E+00  0.00E+00  0.00E+00  1.20E-06  3.07E-06  8.93E-05  0.58973
    162.  61.728  1.03E-06  2.70E-06  0.00E+00  0.00E+00  0.00E+00  0.00E+00  1.03E-06  2.70E-06  9.14E-05  0.65856
    164.  60.976  7.22E-07  1.94E-06  0.00E+00  0.00E+00  0.00E+00  0.00E+00  7.22E-07  1.94E-06  9.28E-05  0.76852
    166.  60.241  1.76E-06  4.86E-06  0.00E+00  0.00E+00  0.00E+00  0.00E+00  1.76E-06  4.86E-06  9.64E-05  0.42760
    168.  59.524  2.00E-06  5.65E-06  0.00E+00  0.00E+00  0.00E+00  0.00E+00  2.00E-06  5.65E-06  1.00E-04  0.35551
    170.  58.824  3.00E-06  8.67E-06  0.00E+00  0.00E+00  0.00E+00  0.00E+00  3.00E-06  8.67E-06  1.06E-04  0.06426
    172.  58.140  2.40E-06  7.09E-06  0.00E+00  0.00E+00  0.00E+00  0.00E+00  2.40E-06  7.09E-06  1.11E-04  0.25671
    174.  57.471  2.53E-06  7.66E-06  0.00E+00  0.00E+00  0.00E+00  0.00E+00  2.53E-06  7.66E-06  1.16E-04  0.23043
    176.  56.818  2.58E-06  8.01E-06  0.00E+00  0.00E+00  0.00E+00  0.00E+00  2.58E-06  8.01E-06  1.21E-04  0.22748
    178.  56.180  2.91E-06  9.22E-06  0.00E+00  0.00E+00  0.00E+00  0.00E+00  2.91E-06  9.22E-06  1.27E-04  0.14282
    180.  55.556  1.83E-06  5.92E-06  0.00E+00  0.00E+00  0.00E+00  0.00E+00  1.83E-06  5.92E-06  1.31E-04  0.47010
    182.  54.945  1.92E-06  6.37E-06  0.00E+00  0.00E+00  0.00E+00  0.00E+00  1.92E-06  6.37E-06  1.35E-04  0.44913
    184.  54.348  1.10E-06  3.72E-06  0.00E+00  0.00E+00  0.00E+00  0.00E+00  1.10E-06  3.72E-06  1.37E-04  0.69514
    186.  53.763  1.00E-06  3.46E-06  0.00E+00  0.00E+00  0.00E+00  0.00E+00  1.00E-06  3.46E-06  1.39E-04  0.72782
    188.  53.191  2.57E-06  9.08E-06  0.00E+00  0.00E+00  0.00E+00  0.00E+00  2.57E-06  9.08E-06  1.44E-04  0.29744
    190.  52.632  1.28E-06  4.62E-06  0.00E+00  0.00E+00  0.00E+00  0.00E+00  1.28E-06  4.62E-06  1.47E-04  0.65655
    192.  52.083  1.17E-06  4.30E-06  0.00E+00  0.00E+00  0.00E+00  0.00E+00  1.17E-06  4.30E-06  1.49E-04  0.69707
    194.  51.546  2.18E-06  8.22E-06  0.00E+00  0.00E+00  0.00E+00  0.00E+00  2.18E-06  8.22E-06  1.53E-04  0.42799
    196.  51.020  1.78E-06  6.83E-06  0.00E+00  0.00E+00  0.00E+00  0.00E+00  1.78E-06  6.83E-06  1.57E-04  0.54320
    198.  50.505  1.50E-06  5.88E-06  0.00E+00  0.00E+00  0.00E+00  0.00E+00  1.50E-06  5.88E-06  1.60E-04  0.61964
1                                             RADIANCE(WATTS/CM2-STER-XXX)
0  FREQ   WAVLEN    PATH THERMAL      SURFACE EMISSION    SURFACE REFLECTED     TOTAL RADIANCE   INTEGRAL    TOTAL
  (CM-1) (MICRN)    (CM-1)   (MICRN)    (CM-1)   (MICRN)    (CM-1)   (MICRN)    (CM-1)   (MICRN)    (CM-1)   TRANS

    200.  50.000  2.15E-06  8.59E-06  0.00E+00  0.00E+00  0.00E+00  0.00E+00  2.15E-06  8.59E-06  1.64E-04  0.45516
    202.  49.505  3.81E-06  1.56E-05  0.00E+00  0.00E+00  0.00E+00  0.00E+00  3.81E-06  1.56E-05  1.72E-04  0.06166
    204.  49.020  3.21E-06  1.34E-05  0.00E+00  0.00E+00  0.00E+00  0.00E+00  3.21E-06  1.34E-05  1.78E-04  0.20817
    206.  48.544  2.07E-06  8.79E-06  0.00E+00  0.00E+00  0.00E+00  0.00E+00  2.07E-06  8.79E-06  1.82E-04  0.49274
    208.  48.077  3.76E-06  1.63E-05  0.00E+00  0.00E+00  0.00E+00  0.00E+00  3.76E-06  1.63E-05  1.90E-04  0.10071
    210.  47.619  2.40E-06  1.06E-05  0.00E+00  0.00E+00  0.00E+00  0.00E+00  2.40E-06  1.06E-05  1.95E-04  0.42850
    212.  47.170  1.87E-06  8.40E-06  0.00E+00  0.00E+00  0.00E+00  0.00E+00  1.87E-06  8.40E-06  1.98E-04  0.56469
    214.  46.729  3.05E-06  1.40E-05  0.00E+00  0.00E+00  0.00E+00  0.00E+00  3.05E-06  1.40E-05  2.04E-04  0.29389
    216.  46.296  1.52E-06  7.09E-06  0.00E+00  0.00E+00  0.00E+00  0.00E+00  1.52E-06  7.09E-06  2.08E-04  0.65856
    218.  45.872  9.17E-07  4.36E-06  0.00E+00  0.00E+00  0.00E+00  0.00E+00  9.17E-07  4.36E-06  2.09E-04  0.80317
    220.  45.455  1.73E-06  8.36E-06  0.00E+00  0.00E+00  0.00E+00  0.00E+00  1.73E-06  8.36E-06  2.13E-04  0.61701
    222.  45.045  3.59E-06  1.77E-05  0.00E+00  0.00E+00  0.00E+00  0.00E+00  3.59E-06  1.77E-05  2.20E-04  0.20345
    224.  44.643  2.89E-06  1.45E-05  0.00E+00  0.00E+00  0.00E+00  0.00E+00  2.89E-06  1.45E-05  2.26E-04  0.36381
    226.  44.248  3.82E-06  1.95E-05  0.00E+00  0.00E+00  0.00E+00  0.00E+00  3.82E-06  1.95E-05  2.33E-04  0.17383
    228.  43.860  4.13E-06  2.15E-05  0.00E+00  0.00E+00  0.00E+00  0.00E+00  4.13E-06  2.15E-05  2.42E-04  0.11731
    230.  43.478  2.02E-06  1.07E-05  0.00E+00  0.00E+00  0.00E+00  0.00E+00  2.02E-06  1.07E-05  2.46E-04  0.57329
    232.  43.103  1.89E-06  1.02E-05  0.00E+00  0.00E+00  0.00E+00  0.00E+00  1.89E-06  1.02E-05  2.49E-04  0.60818
    234.  42.735  1.15E-06  6.28E-06  0.00E+00  0.00E+00  0.00E+00  0.00E+00  1.15E-06  6.28E-06  2.52E-04  0.77278
    236.  42.373  7.96E-07  4.44E-06  0.00E+00  0.00E+00  0.00E+00  0.00E+00  7.96E-07  4.44E-06  2.53E-04  0.85097
    238.  42.017  7.55E-07  4.27E-06  0.00E+00  0.00E+00  0.00E+00  0.00E+00  7.55E-07  4.27E-06  2.55E-04  0.86178
    240.  41.667  7.71E-07  4.44E-06  0.00E+00  0.00E+00  0.00E+00  0.00E+00  7.71E-07  4.44E-06  2.56E-04  0.85989
    242.  41.322  9.07E-07  5.31E-06  0.00E+00  0.00E+00  0.00E+00  0.00E+00  9.07E-07  5.31E-06  2.58E-04  0.83257
    244.  40.984  2.68E-06  1.59E-05  0.00E+00  0.00E+00  0.00E+00  0.00E+00  2.68E-06  1.59E-05  2.64E-04  0.47318
    246.  40.650  4.36E-06  2.64E-05  0.00E+00  0.00E+00  0.00E+00  0.00E+00  4.36E-06  2.64E-05  2.72E-04  0.13787
    248.  40.323  4.17E-06  2.57E-05  0.00E+00  0.00E+00  0.00E+00  0.00E+00  4.17E-06  2.57E-05  2.81E-04  0.18510
    250.  40.000  2.03E-06  1.27E-05  0.00E+00  0.00E+00  0.00E+00  0.00E+00  2.03E-06  1.27E-05  2.85E-04  0.61232
    252.  39.683  2.83E-06  1.80E-05  0.00E+00  0.00E+00  0.00E+00  0.00E+00  2.83E-06  1.80E-05  2.90E-04  0.45689
    254.  39.370  4.61E-06  2.97E-05  0.00E+00  0.00E+00  0.00E+00  0.00E+00  4.61E-06  2.97E-05  3.00E-04  0.12833
    256.  39.063  2.14E-06  1.40E-05  0.00E+00  0.00E+00  0.00E+00  0.00E+00  2.14E-06  1.40E-05  3.04E-04  0.60017
    258.  38.760  1.03E-06  6.84E-06  0.00E+00  0.00E+00  0.00E+00  0.00E+00  1.03E-06  6.84E-06  3.06E-04  0.82303
    260.  38.462  8.00E-07  5.41E-06  0.00E+00  0.00E+00  0.00E+00  0.00E+00  8.00E-07  5.41E-06  3.08E-04  0.86967
    262.  38.168  9.17E-07  6.30E-06  0.00E+00  0.00E+00  0.00E+00  0.00E+00  9.17E-07  6.30E-06  3.09E-04  0.84816
    264.  37.879  1.02E-06  7.13E-06  0.00E+00  0.00E+00  0.00E+00  0.00E+00  1.02E-06  7.13E-06  3.11E-04  0.82880
    266.  37.594  2.55E-06  1.80E-05  0.00E+00  0.00E+00  0.00E+00  0.00E+00  2.55E-06  1.80E-05  3.16E-04  0.54423
    268.  37.313  1.22E-06  8.76E-06  0.00E+00  0.00E+00  0.00E+00  0.00E+00  1.22E-06  8.76E-06  3.19E-04  0.79498
    270.  37.037  7.65E-07  5.58E-06  0.00E+00  0.00E+00  0.00E+00  0.00E+00  7.65E-07  5.58E-06  3.20E-04  0.88316
    272.  36.765  9.67E-07  7.15E-06  0.00E+00  0.00E+00  0.00E+00  0.00E+00  9.67E-07  7.15E-06  3.22E-04  0.84660
    274.  36.496  1.09E-06  8.19E-06  0.00E+00  0.00E+00  0.00E+00  0.00E+00  1.09E-06  8.19E-06  3.25E-04  0.82430
    276.  36.232  3.13E-06  2.38E-05  0.00E+00  0.00E+00  0.00E+00  0.00E+00  3.13E-06  2.38E-05  3.31E-04  0.45416
    278.  35.971  4.68E-06  3.62E-05  0.00E+00  0.00E+00  0.00E+00  0.00E+00  4.68E-06  3.62E-05  3.40E-04  0.18547
    280.  35.714  4.26E-06  3.34E-05  0.00E+00  0.00E+00  0.00E+00  0.00E+00  4.26E-06  3.34E-05  3.49E-04  0.26144
    282.  35.461  4.31E-06  3.43E-05  0.00E+00  0.00E+00  0.00E+00  0.00E+00  4.31E-06  3.43E-05  3.57E-04  0.25931
    284.  35.211  1.76E-06  1.42E-05  0.00E+00  0.00E+00  0.00E+00  0.00E+00  1.76E-06  1.42E-05  3.61E-04  0.70957
    286.  34.965  1.09E-06  8.93E-06  0.00E+00  0.00E+00  0.00E+00  0.00E+00  1.09E-06  8.93E-06  3.63E-04  0.83291
    288.  34.722  2.13E-06  1.77E-05  0.00E+00  0.00E+00  0.00E+00  0.00E+00  2.13E-06  1.77E-05  3.67E-04  0.65326
    290.  34.483  3.22E-06  2.70E-05  0.00E+00  0.00E+00  0.00E+00  0.00E+00  3.22E-06  2.70E-05  3.74E-04  0.46315
    292.  34.247  1.18E-06  1.01E-05  0.00E+00  0.00E+00  0.00E+00  0.00E+00  1.18E-06  1.01E-05  3.76E-04  0.82209
    294.  34.014  7.60E-07  6.57E-06  0.00E+00  0.00E+00  0.00E+00  0.00E+00  7.60E-07  6.57E-06  3.78E-04  0.89720
    296.  33.784  9.04E-07  7.92E-06  0.00E+00  0.00E+00  0.00E+00  0.00E+00  9.04E-07  7.92E-06  3.79E-04  0.87254
    298.  33.557  1.41E-06  1.26E-05  0.00E+00  0.00E+00  0.00E+00  0.00E+00  1.41E-06  1.26E-05  3.82E-04  0.78635
1                                             RADIANCE(WATTS/CM2-STER-XXX)
0  FREQ   WAVLEN    PATH THERMAL      SURFACE EMISSION    SURFACE REFLECTED     TOTAL RADIANCE   INTEGRAL    TOTAL
  (CM-1) (MICRN)    (CM-1)   (MICRN)    (CM-1)   (MICRN)    (CM-1)   (MICRN)    (CM-1)   (MICRN)    (CM-1)   TRANS

    300.  33.333  1.49E-06  1.34E-05  0.00E+00  0.00E+00  0.00E+00  0.00E+00  1.49E-06  1.34E-05  3.85E-04  0.77196
    302.  33.113  4.42E-06  4.03E-05  0.00E+00  0.00E+00  0.00E+00  0.00E+00  4.42E-06  4.03E-05  3.94E-04  0.28856
    304.  32.895  3.36E-06  3.10E-05  0.00E+00  0.00E+00  0.00E+00  0.00E+00  3.36E-06  3.10E-05  4.01E-04  0.46533
    306.  32.680  1.09E-06  1.02E-05  0.00E+00  0.00E+00  0.00E+00  0.00E+00  1.09E-06  1.02E-05  4.03E-04  0.84541
    308.  32.468  9.28E-07  8.80E-06  0.00E+00  0.00E+00  0.00E+00  0.00E+00  9.28E-07  8.80E-06  4.05E-04  0.87504
    310.  32.258  8.95E-07  8.60E-06  0.00E+00  0.00E+00  0.00E+00  0.00E+00  8.95E-07  8.60E-06  4.07E-04  0.88136
    312.  32.051  8.22E-07  8.00E-06  0.00E+00  0.00E+00  0.00E+00  0.00E+00  8.22E-07  8.00E-06  4.08E-04  0.89491
    314.  31.847  1.66E-06  1.64E-05  0.00E+00  0.00E+00  0.00E+00  0.00E+00  1.66E-06  1.64E-05  4.12E-04  0.75732
    316.  31.646  1.74E-06  1.74E-05  0.00E+00  0.00E+00  0.00E+00  0.00E+00  1.74E-06  1.74E-05  4.15E-04  0.74504
    318.  31.447  7.29E-07  7.38E-06  0.00E+00  0.00E+00  0.00E+00  0.00E+00  7.29E-07  7.38E-06  4.17E-04  0.91273
    320.  31.250  8.23E-07  8.43E-06  0.00E+00  0.00E+00  0.00E+00  0.00E+00  8.23E-07  8.43E-06  4.18E-04  0.89779
    322.  31.056  1.46E-06  1.51E-05  0.00E+00  0.00E+00  0.00E+00  0.00E+00  1.46E-06  1.51E-05  4.21E-04  0.79298
    324.  30.864  3.88E-06  4.07E-05  0.00E+00  0.00E+00  0.00E+00  0.00E+00  3.88E-06  4.07E-05  4.29E-04  0.41210
    326.  30.675  1.47E-06  1.56E-05  0.00E+00  0.00E+00  0.00E+00  0.00E+00  1.47E-06  1.56E-05  4.32E-04  0.79403
    328.  30.488  3.72E-06  4.00E-05  0.00E+00  0.00E+00  0.00E+00  0.00E+00  3.72E-06  4.00E-05  4.39E-04  0.44452
    330.  30.303  9.57E-07  1.04E-05  0.00E+00  0.00E+00  0.00E+00  0.00E+00  9.57E-07  1.04E-05  4.41E-04  0.87971
    332.  30.120  7.75E-07  8.55E-06  0.00E+00  0.00E+00  0.00E+00  0.00E+00  7.75E-07  8.55E-06  4.43E-04  0.91028
    334.  29.940  2.03E-06  2.26E-05  0.00E+00  0.00E+00  0.00E+00  0.00E+00  2.03E-06  2.26E-05  4.47E-04  0.71468
    336.  29.762  2.56E-06  2.89E-05  0.00E+00  0.00E+00  0.00E+00  0.00E+00  2.56E-06  2.89E-05  4.52E-04  0.62937
    338.  29.586  7.72E-07  8.82E-06  0.00E+00  0.00E+00  0.00E+00  0.00E+00  7.72E-07  8.82E-06  4.53E-04  0.91308
    340.  29.412  1.51E-06  1.75E-05  0.00E+00  0.00E+00  0.00E+00  0.00E+00  1.51E-06  1.75E-05  4.56E-04  0.79780
    342.  29.240  1.73E-06  2.03E-05  0.00E+00  0.00E+00  0.00E+00  0.00E+00  1.73E-06  2.03E-05  4.60E-04  0.76456
    344.  29.070  1.11E-06  1.31E-05  0.00E+00  0.00E+00  0.00E+00  0.00E+00  1.11E-06  1.31E-05  4.62E-04  0.86268
    346.  28.902  1.10E-06  1.32E-05  0.00E+00  0.00E+00  0.00E+00  0.00E+00  1.10E-06  1.32E-05  4.64E-04  0.86378
    348.  28.736  9.74E-07  1.18E-05  0.00E+00  0.00E+00  0.00E+00  0.00E+00  9.74E-07  1.18E-05  4.66E-04  0.88497
    350.  28.571  2.57E-06  3.15E-05  0.00E+00  0.00E+00  0.00E+00  0.00E+00  2.57E-06  3.15E-05  4.71E-04  0.64193
    352.  28.409  2.87E-06  3.56E-05  0.00E+00  0.00E+00  0.00E+00  0.00E+00  2.87E-06  3.56E-05  4.77E-04  0.59844
    354.  28.249  2.78E-06  3.49E-05  0.00E+00  0.00E+00  0.00E+00  0.00E+00  2.78E-06  3.49E-05  4.83E-04  0.61200
    356.  28.090  2.24E-06  2.84E-05  0.00E+00  0.00E+00  0.00E+00  0.00E+00  2.24E-06  2.84E-05  4.87E-04  0.69539
    358.  27.933  2.40E-06  3.08E-05  0.00E+00  0.00E+00  0.00E+00  0.00E+00  2.40E-06  3.08E-05  4.92E-04  0.67111
    360.  27.778  7.70E-07  9.98E-06  0.00E+00  0.00E+00  0.00E+00  0.00E+00  7.70E-07  9.98E-06  4.94E-04  0.92157
    362.  27.624  7.59E-07  9.95E-06  0.00E+00  0.00E+00  0.00E+00  0.00E+00  7.59E-07  9.95E-06  4.95E-04  0.92393
    364.  27.473  7.45E-07  9.87E-06  0.00E+00  0.00E+00  0.00E+00  0.00E+00  7.45E-07  9.87E-06  4.97E-04  0.92684
    366.  27.322  7.06E-07  9.45E-06  0.00E+00  0.00E+00  0.00E+00  0.00E+00  7.06E-07  9.45E-06  4.98E-04  0.93363
    368.  27.174  8.67E-07  1.17E-05  0.00E+00  0.00E+00  0.00E+00  0.00E+00  8.67E-07  1.17E-05  5.00E-04  0.90925
    370.  27.027  2.07E-06  2.83E-05  0.00E+00  0.00E+00  0.00E+00  0.00E+00  2.07E-06  2.83E-05  5.04E-04  0.72933
    372.  26.882  7.85E-07  1.09E-05  0.00E+00  0.00E+00  0.00E+00  0.00E+00  7.85E-07  1.09E-05  5.05E-04  0.92326
    374.  26.738  2.34E-06  3.27E-05  0.00E+00  0.00E+00  0.00E+00  0.00E+00  2.34E-06  3.27E-05  5.10E-04  0.69343
    376.  26.596  2.30E-06  3.25E-05  0.00E+00  0.00E+00  0.00E+00  0.00E+00  2.30E-06  3.25E-05  5.15E-04  0.69940
    378.  26.455  8.43E-07  1.20E-05  0.00E+00  0.00E+00  0.00E+00  0.00E+00  8.43E-07  1.20E-05  5.16E-04  0.91632
    380.  26.316  8.04E-07  1.16E-05  0.00E+00  0.00E+00  0.00E+00  0.00E+00  8.04E-07  1.16E-05  5.18E-04  0.92288
    382.  26.178  7.54E-07  1.10E-05  0.00E+00  0.00E+00  0.00E+00  0.00E+00  7.54E-07  1.10E-05  5.20E-04  0.93098
    384.  26.042  1.73E-06  2.56E-05  0.00E+00  0.00E+00  0.00E+00  0.00E+00  1.73E-06  2.56E-05  5.23E-04  0.78545
    386.  25.907  2.11E-06  3.14E-05  0.00E+00  0.00E+00  0.00E+00  0.00E+00  2.11E-06  3.14E-05  5.27E-04  0.73044
    388.  25.773  7.43E-07  1.12E-05  0.00E+00  0.00E+00  0.00E+00  0.00E+00  7.43E-07  1.12E-05  5.29E-04  0.93439
    390.  25.641  7.41E-07  1.13E-05  0.00E+00  0.00E+00  0.00E+00  0.00E+00  7.41E-07  1.13E-05  5.30E-04  0.93533
    392.  25.510  7.42E-07  1.14E-05  0.00E+00  0.00E+00  0.00E+00  0.00E+00  7.42E-07  1.14E-05  5.32E-04  0.93579
    394.  25.381  1.46E-06  2.27E-05  0.00E+00  0.00E+00  0.00E+00  0.00E+00  1.46E-06  2.27E-05  5.35E-04  0.83080
    396.  25.253  2.39E-06  3.75E-05  0.00E+00  0.00E+00  0.00E+00  0.00E+00  2.39E-06  3.75E-05  5.39E-04  0.69437
    398.  25.126  2.52E-06  3.99E-05  0.00E+00  0.00E+00  0.00E+00  0.00E+00  2.52E-06  3.99E-05  5.44E-04  0.67688
1                                             RADIANCE(WATTS/CM2-STER-XXX)
0  FREQ   WAVLEN    PATH THERMAL      SURFACE EMISSION    SURFACE REFLECTED     TOTAL RADIANCE   INTEGRAL    TOTAL
  (CM-1) (MICRN)    (CM-1)   (MICRN)    (CM-1)   (MICRN)    (CM-1)   (MICRN)    (CM-1)   (MICRN)    (CM-1)   TRANS

    400.  25.000  1.85E-06  2.97E-05  0.00E+00  0.00E+00  0.00E+00  0.00E+00  1.85E-06  2.97E-05  5.48E-04  0.77488
    402.  24.876  7.64E-07  1.24E-05  0.00E+00  0.00E+00  0.00E+00  0.00E+00  7.64E-07  1.24E-05  5.50E-04  0.93523
    404.  24.752  7.72E-07  1.26E-05  0.00E+00  0.00E+00  0.00E+00  0.00E+00  7.72E-07  1.26E-05  5.51E-04  0.93473
    406.  24.631  7.75E-07  1.28E-05  0.00E+00  0.00E+00  0.00E+00  0.00E+00  7.75E-07  1.28E-05  5.53E-04  0.93493
    408.  24.510  7.57E-07  1.26E-05  0.00E+00  0.00E+00  0.00E+00  0.00E+00  7.57E-07  1.26E-05  5.54E-04  0.93835
    410.  24.390  7.62E-07  1.28E-05  0.00E+00  0.00E+00  0.00E+00  0.00E+00  7.62E-07  1.28E-05  5.56E-04  0.93814
    412.  24.272  7.69E-07  1.31E-05  0.00E+00  0.00E+00  0.00E+00  0.00E+00  7.69E-07  1.31E-05  5.57E-04  0.93775
    414.  24.155  7.98E-07  1.37E-05  0.00E+00  0.00E+00  0.00E+00  0.00E+00  7.98E-07  1.37E-05  5.59E-04  0.93410
    416.  24.038  8.55E-07  1.48E-05  0.00E+00  0.00E+00  0.00E+00  0.00E+00  8.55E-07  1.48E-05  5.61E-04  0.92614
    418.  23.923  2.74E-06  4.78E-05  0.00E+00  0.00E+00  0.00E+00  0.00E+00  2.74E-06  4.78E-05  5.66E-04  0.65564
    420.  23.810  2.44E-06  4.30E-05  0.00E+00  0.00E+00  0.00E+00  0.00E+00  2.44E-06  4.30E-05  5.71E-04  0.69874
    422.  23.697  1.10E-06  1.96E-05  0.00E+00  0.00E+00  0.00E+00  0.00E+00  1.10E-06  1.96E-05  5.73E-04  0.89215
    424.  23.585  1.19E-06  2.13E-05  0.00E+00  0.00E+00  0.00E+00  0.00E+00  1.19E-06  2.13E-05  5.76E-04  0.88062
    426.  23.474  1.16E-06  2.11E-05  0.00E+00  0.00E+00  0.00E+00  0.00E+00  1.16E-06  2.11E-05  5.78E-04  0.88391
    428.  23.364  8.25E-07  1.51E-05  0.00E+00  0.00E+00  0.00E+00  0.00E+00  8.25E-07  1.51E-05  5.80E-04  0.93428
    430.  23.256  1.06E-06  1.97E-05  0.00E+00  0.00E+00  0.00E+00  0.00E+00  1.06E-06  1.97E-05  5.82E-04  0.89966
    432.  23.148  1.08E-06  2.02E-05  0.00E+00  0.00E+00  0.00E+00  0.00E+00  1.08E-06  2.02E-05  5.84E-04  0.89729
    434.  23.041  8.68E-07  1.63E-05  0.00E+00  0.00E+00  0.00E+00  0.00E+00  8.68E-07  1.63E-05  5.86E-04  0.92971
    436.  22.936  1.09E-06  2.06E-05  0.00E+00  0.00E+00  0.00E+00  0.00E+00  1.09E-06  2.06E-05  5.88E-04  0.89888
    438.  22.831  8.48E-07  1.63E-05  0.00E+00  0.00E+00  0.00E+00  0.00E+00  8.48E-07  1.63E-05  5.89E-04  0.93363
    440.  22.727  8.67E-07  1.68E-05  0.00E+00  0.00E+00  0.00E+00  0.00E+00  8.67E-07  1.68E-05  5.91E-04  0.93136
    442.  22.624  1.92E-06  3.75E-05  0.00E+00  0.00E+00  0.00E+00  0.00E+00  1.92E-06  3.75E-05  5.95E-04  0.77876
    444.  22.523  1.10E-06  2.18E-05  0.00E+00  0.00E+00  0.00E+00  0.00E+00  1.10E-06  2.18E-05  5.97E-04  0.89823
    446.  22.422  9.89E-07  1.97E-05  0.00E+00  0.00E+00  0.00E+00  0.00E+00  9.89E-07  1.97E-05  5.99E-04  0.91533
    448.  22.321  9.33E-07  1.87E-05  0.00E+00  0.00E+00  0.00E+00  0.00E+00  9.33E-07  1.87E-05  6.01E-04  0.92409
    450.  22.222  8.75E-07  1.77E-05  0.00E+00  0.00E+00  0.00E+00  0.00E+00  8.75E-07  1.77E-05  6.03E-04  0.93302
    452.  22.124  1.04E-06  2.13E-05  0.00E+00  0.00E+00  0.00E+00  0.00E+00  1.04E-06  2.13E-05  6.05E-04  0.90925
    454.  22.026  1.02E-06  2.11E-05  0.00E+00  0.00E+00  0.00E+00  0.00E+00  1.02E-06  2.11E-05  6.07E-04  0.91256
    456.  21.930  1.20E-06  2.50E-05  0.00E+00  0.00E+00  0.00E+00  0.00E+00  1.20E-06  2.50E-05  6.09E-04  0.88618
    458.  21.834  2.61E-06  5.47E-05  0.00E+00  0.00E+00  0.00E+00  0.00E+00  2.61E-06  5.47E-05  6.15E-04  0.68443
    460.  21.739  9.63E-07  2.04E-05  0.00E+00  0.00E+00  0.00E+00  0.00E+00  9.63E-07  2.04E-05  6.16E-04  0.92293
    462.  21.645  9.49E-07  2.03E-05  0.00E+00  0.00E+00  0.00E+00  0.00E+00  9.49E-07  2.03E-05  6.18E-04  0.92550
    464.  21.552  9.03E-07  1.94E-05  0.00E+00  0.00E+00  0.00E+00  0.00E+00  9.03E-07  1.94E-05  6.20E-04  0.93261
    466.  21.459  9.23E-07  2.00E-05  0.00E+00  0.00E+00  0.00E+00  0.00E+00  9.23E-07  2.00E-05  6.22E-04  0.93004
    468.  21.368  1.04E-06  2.28E-05  0.00E+00  0.00E+00  0.00E+00  0.00E+00  1.04E-06  2.28E-05  6.24E-04  0.91318
    470.  21.277  9.62E-07  2.12E-05  0.00E+00  0.00E+00  0.00E+00  0.00E+00  9.62E-07  2.12E-05  6.26E-04  0.92536
    472.  21.186  2.02E-06  4.50E-05  0.00E+00  0.00E+00  0.00E+00  0.00E+00  2.02E-06  4.50E-05  6.30E-04  0.77173
    474.  21.097  1.31E-06  2.94E-05  0.00E+00  0.00E+00  0.00E+00  0.00E+00  1.31E-06  2.94E-05  6.33E-04  0.87507
    476.  21.008  9.66E-07  2.19E-05  0.00E+00  0.00E+00  0.00E+00  0.00E+00  9.66E-07  2.19E-05  6.35E-04  0.92498
    478.  20.921  9.21E-07  2.10E-05  0.00E+00  0.00E+00  0.00E+00  0.00E+00  9.21E-07  2.10E-05  6.36E-04  0.93172
    480.  20.833  9.32E-07  2.15E-05  0.00E+00  0.00E+00  0.00E+00  0.00E+00  9.32E-07  2.15E-05  6.38E-04  0.93038
    482.  20.747  9.48E-07  2.20E-05  0.00E+00  0.00E+00  0.00E+00  0.00E+00  9.48E-07  2.20E-05  6.40E-04  0.92801
    484.  20.661  1.56E-06  3.65E-05  0.00E+00  0.00E+00  0.00E+00  0.00E+00  1.56E-06  3.65E-05  6.43E-04  0.83888
    486.  20.576  9.63E-07  2.27E-05  0.00E+00  0.00E+00  0.00E+00  0.00E+00  9.63E-07  2.27E-05  6.45E-04  0.92632
    488.  20.492  9.13E-07  2.17E-05  0.00E+00  0.00E+00  0.00E+00  0.00E+00  9.13E-07  2.17E-05  6.47E-04  0.93383
    490.  20.408  9.14E-07  2.20E-05  0.00E+00  0.00E+00  0.00E+00  0.00E+00  9.14E-07  2.20E-05  6.49E-04  0.93377
    492.  20.325  1.21E-06  2.93E-05  0.00E+00  0.00E+00  0.00E+00  0.00E+00  1.21E-06  2.93E-05  6.51E-04  0.88997
    494.  20.243  9.20E-07  2.24E-05  0.00E+00  0.00E+00  0.00E+00  0.00E+00  9.20E-07  2.24E-05  6.53E-04  0.93319
    496.  20.161  9.07E-07  2.23E-05  0.00E+00  0.00E+00  0.00E+00  0.00E+00  9.07E-07  2.23E-05  6.55E-04  0.93516
    498.  20.080  9.07E-07  2.25E-05  0.00E+00  0.00E+00  0.00E+00  0.00E+00  9.07E-07  2.25E-05  6.57E-04  0.93531
1                                             RADIANCE(WATTS/CM2-STER-XXX)
0  FREQ   WAVLEN    PATH THERMAL      SURFACE EMISSION    SURFACE REFLECTED     TOTAL RADIANCE   INTEGRAL    TOTAL
  (CM-1) (MICRN)    (CM-1)   (MICRN)    (CM-1)   (MICRN)    (CM-1)   (MICRN)    (CM-1)   (MICRN)    (CM-1)   TRANS

    500.  20.000  9.16E-07  2.29E-05  0.00E+00  0.00E+00  0.00E+00  0.00E+00  9.16E-07  2.29E-05  6.59E-04  0.93406
    502.  19.920  1.38E-06  3.48E-05  0.00E+00  0.00E+00  0.00E+00  0.00E+00  1.38E-06  3.48E-05  6.61E-04  0.86600
    504.  19.841  9.35E-07  2.37E-05  0.00E+00  0.00E+00  0.00E+00  0.00E+00  9.35E-07  2.37E-05  6.63E-04  0.93146
    506.  19.763  1.20E-06  3.06E-05  0.00E+00  0.00E+00  0.00E+00  0.00E+00  1.20E-06  3.06E-05  6.66E-04  0.89295
    508.  19.685  1.21E-06  3.13E-05  0.00E+00  0.00E+00  0.00E+00  0.00E+00  1.21E-06  3.13E-05  6.68E-04  0.89314
    510.  19.608  9.56E-07  2.49E-05  0.00E+00  0.00E+00  0.00E+00  0.00E+00  9.56E-07  2.49E-05  6.70E-04  0.93030
    512.  19.531  9.53E-07  2.50E-05  0.00E+00  0.00E+00  0.00E+00  0.00E+00  9.53E-07  2.50E-05  6.72E-04  0.93023
    514.  19.455  9.41E-07  2.49E-05  0.00E+00  0.00E+00  0.00E+00  0.00E+00  9.41E-07  2.49E-05  6.74E-04  0.93282
    516.  19.380  1.11E-06  2.94E-05  0.00E+00  0.00E+00  0.00E+00  0.00E+00  1.11E-06  2.94E-05  6.76E-04  0.90824
    518.  19.305  1.37E-06  3.68E-05  0.00E+00  0.00E+00  0.00E+00  0.00E+00  1.37E-06  3.68E-05  6.79E-04  0.87009
    520.  19.231  1.27E-06  3.44E-05  0.00E+00  0.00E+00  0.00E+00  0.00E+00  1.27E-06  3.44E-05  6.81E-04  0.88627
    522.  19.157  9.72E-07  2.65E-05  0.00E+00  0.00E+00  0.00E+00  0.00E+00  9.72E-07  2.65E-05  6.83E-04  0.93092
    524.  19.084  1.03E-06  2.82E-05  0.00E+00  0.00E+00  0.00E+00  0.00E+00  1.03E-06  2.82E-05  6.85E-04  0.92561
    526.  19.011  1.48E-06  4.08E-05  0.00E+00  0.00E+00  0.00E+00  0.00E+00  1.48E-06  4.08E-05  6.88E-04  0.86101
    528.  18.939  1.02E-06  2.85E-05  0.00E+00  0.00E+00  0.00E+00  0.00E+00  1.02E-06  2.85E-05  6.90E-04  0.92678
    530.  18.868  1.07E-06  3.00E-05  0.00E+00  0.00E+00  0.00E+00  0.00E+00  1.07E-06  3.00E-05  6.92E-04  0.92340
    532.  18.797  1.07E-06  3.02E-05  0.00E+00  0.00E+00  0.00E+00  0.00E+00  1.07E-06  3.02E-05  6.95E-04  0.92352
    534.  18.727  1.02E-06  2.91E-05  0.00E+00  0.00E+00  0.00E+00  0.00E+00  1.02E-06  2.91E-05  6.97E-04  0.92713
    536.  18.657  1.20E-06  3.44E-05  0.00E+00  0.00E+00  0.00E+00  0.00E+00  1.20E-06  3.44E-05  6.99E-04  0.90028
    538.  18.587  1.04E-06  3.00E-05  0.00E+00  0.00E+00  0.00E+00  0.00E+00  1.04E-06  3.00E-05  7.01E-04  0.92583
    540.  18.519  1.03E-06  3.00E-05  0.00E+00  0.00E+00  0.00E+00  0.00E+00  1.03E-06  3.00E-05  7.03E-04  0.92414
    542.  18.450  1.02E-06  2.98E-05  0.00E+00  0.00E+00  0.00E+00  0.00E+00  1.02E-06  2.98E-05  7.05E-04  0.92528
    544.  18.382  2.63E-06  7.77E-05  0.00E+00  0.00E+00  0.00E+00  0.00E+00  2.63E-06  7.77E-05  7.10E-04  0.79467
    546.  18.315  2.71E-06  8.09E-05  0.00E+00  0.00E+00  0.00E+00  0.00E+00  2.71E-06  8.09E-05  7.16E-04  0.77565
    548.  18.248  1.30E-06  3.90E-05  0.00E+00  0.00E+00  0.00E+00  0.00E+00  1.30E-06  3.90E-05  7.18E-04  0.90135
    550.  18.182  1.30E-06  3.92E-05  0.00E+00  0.00E+00  0.00E+00  0.00E+00  1.30E-06  3.92E-05  7.21E-04  0.89890
    552.  18.116  1.23E-06  3.74E-05  0.00E+00  0.00E+00  0.00E+00  0.00E+00  1.23E-06  3.74E-05  7.24E-04  0.91105
    554.  18.051  1.33E-06  4.07E-05  0.00E+00  0.00E+00  0.00E+00  0.00E+00  1.33E-06  4.07E-05  7.26E-04  0.89967
    556.  17.986  1.53E-06  4.72E-05  0.00E+00  0.00E+00  0.00E+00  0.00E+00  1.53E-06  4.72E-05  7.29E-04  0.88303
    558.  17.921  1.56E-06  4.86E-05  0.00E+00  0.00E+00  0.00E+00  0.00E+00  1.56E-06  4.86E-05  7.32E-04  0.88424
    560.  17.857  1.67E-06  5.24E-05  0.00E+00  0.00E+00  0.00E+00  0.00E+00  1.67E-06  5.24E-05  7.36E-04  0.87437
    562.  17.794  1.81E-06  5.72E-05  0.00E+00  0.00E+00  0.00E+00  0.00E+00  1.81E-06  5.72E-05  7.39E-04  0.85990
    564.  17.730  2.16E-06  6.87E-05  0.00E+00  0.00E+00  0.00E+00  0.00E+00  2.16E-06  6.87E-05  7.44E-04  0.83047
    566.  17.668  2.44E-06  7.83E-05  0.00E+00  0.00E+00  0.00E+00  0.00E+00  2.44E-06  7.83E-05  7.49E-04  0.80327
    568.  17.606  2.78E-06  8.98E-05  0.00E+00  0.00E+00  0.00E+00  0.00E+00  2.78E-06  8.98E-05  7.54E-04  0.76908
    570.  17.544  3.28E-06  1.07E-04  0.00E+00  0.00E+00  0.00E+00  0.00E+00  3.28E-06  1.07E-04  7.61E-04  0.73392
    572.  17.483  3.39E-06  1.11E-04  0.00E+00  0.00E+00  0.00E+00  0.00E+00  3.39E-06  1.11E-04  7.67E-04  0.73454
    574.  17.422  4.02E-06  1.33E-04  0.00E+00  0.00E+00  0.00E+00  0.00E+00  4.02E-06  1.33E-04  7.75E-04  0.68432
    576.  17.361  4.95E-06  1.64E-04  0.00E+00  0.00E+00  0.00E+00  0.00E+00  4.95E-06  1.64E-04  7.85E-04  0.60249
    578.  17.301  5.74E-06  1.92E-04  0.00E+00  0.00E+00  0.00E+00  0.00E+00  5.74E-06  1.92E-04  7.97E-04  0.55657
    580.  17.241  6.37E-06  2.14E-04  0.00E+00  0.00E+00  0.00E+00  0.00E+00  6.37E-06  2.14E-04  8.10E-04  0.50372
    582.  17.182  7.27E-06  2.46E-04  0.00E+00  0.00E+00  0.00E+00  0.00E+00  7.27E-06  2.46E-04  8.24E-04  0.44489
    584.  17.123  7.59E-06  2.59E-04  0.00E+00  0.00E+00  0.00E+00  0.00E+00  7.59E-06  2.59E-04  8.39E-04  0.42788
    586.  17.065  8.95E-06  3.07E-04  0.00E+00  0.00E+00  0.00E+00  0.00E+00  8.95E-06  3.07E-04  8.57E-04  0.33709
    588.  17.007  9.28E-06  3.21E-04  0.00E+00  0.00E+00  0.00E+00  0.00E+00  9.28E-06  3.21E-04  8.76E-04  0.31626
    590.  16.949  1.12E-05  3.89E-04  0.00E+00  0.00E+00  0.00E+00  0.00E+00  1.12E-05  3.89E-04  8.98E-04  0.18552
    592.  16.892  9.84E-06  3.45E-04  0.00E+00  0.00E+00  0.00E+00  0.00E+00  9.84E-06  3.45E-04  9.18E-04  0.27302
    594.  16.835  1.19E-05  4.21E-04  0.00E+00  0.00E+00  0.00E+00  0.00E+00  1.19E-05  4.21E-04  9.42E-04  0.14723
    596.  16.779  1.33E-05  4.71E-04  0.00E+00  0.00E+00  0.00E+00  0.00E+00  1.33E-05  4.71E-04  9.68E-04  0.06501
    598.  16.722  1.29E-05  4.63E-04  0.00E+00  0.00E+00  0.00E+00  0.00E+00  1.29E-05  4.63E-04  9.94E-04  0.09267
1                                             RADIANCE(WATTS/CM2-STER-XXX)
0  FREQ   WAVLEN    PATH THERMAL      SURFACE EMISSION    SURFACE REFLECTED     TOTAL RADIANCE   INTEGRAL    TOTAL
  (CM-1) (MICRN)    (CM-1)   (MICRN)    (CM-1)   (MICRN)    (CM-1)   (MICRN)    (CM-1)   (MICRN)    (CM-1)   TRANS

    600.  16.667  1.16E-05  4.18E-04  0.00E+00  0.00E+00  0.00E+00  0.00E+00  1.16E-05  4.18E-04  1.02E-03  0.15954
    602.  16.611  1.22E-05  4.44E-04  0.00E+00  0.00E+00  0.00E+00  0.00E+00  1.22E-05  4.44E-04  1.04E-03  0.12672
    604.  16.556  1.26E-05  4.61E-04  0.00E+00  0.00E+00  0.00E+00  0.00E+00  1.26E-05  4.61E-04  1.07E-03  0.09346
    606.  16.502  1.35E-05  4.96E-04  0.00E+00  0.00E+00  0.00E+00  0.00E+00  1.35E-05  4.96E-04  1.09E-03  0.05222
    608.  16.447  1.35E-05  4.98E-04  0.00E+00  0.00E+00  0.00E+00  0.00E+00  1.35E-05  4.98E-04  1.12E-03  0.05269
    610.  16.393  1.31E-05  4.88E-04  0.00E+00  0.00E+00  0.00E+00  0.00E+00  1.31E-05  4.88E-04  1.15E-03  0.06657
    612.  16.340  1.26E-05  4.71E-04  0.00E+00  0.00E+00  0.00E+00  0.00E+00  1.26E-05  4.71E-04  1.17E-03  0.09511
    614.  16.287  1.39E-05  5.22E-04  0.00E+00  0.00E+00  0.00E+00  0.00E+00  1.39E-05  5.22E-04  1.20E-03  0.03226
    616.  16.234  1.47E-05  5.59E-04  0.00E+00  0.00E+00  0.00E+00  0.00E+00  1.47E-05  5.59E-04  1.23E-03  0.00486
    618.  16.181  1.50E-05  5.73E-04  0.00E+00  0.00E+00  0.00E+00  0.00E+00  1.50E-05  5.73E-04  1.26E-03  0.00027
    620.  16.129  1.38E-05  5.29E-04  0.00E+00  0.00E+00  0.00E+00  0.00E+00  1.38E-05  5.29E-04  1.29E-03  0.03077
    622.  16.077  1.41E-05  5.44E-04  0.00E+00  0.00E+00  0.00E+00  0.00E+00  1.41E-05  5.44E-04  1.32E-03  0.02150
    624.  16.026  1.44E-05  5.62E-04  0.00E+00  0.00E+00  0.00E+00  0.00E+00  1.44E-05  5.62E-04  1.34E-03  0.01088
    626.  15.974  1.46E-05  5.71E-04  0.00E+00  0.00E+00  0.00E+00  0.00E+00  1.46E-05  5.71E-04  1.37E-03  0.00570
    628.  15.924  1.48E-05  5.85E-04  0.00E+00  0.00E+00  0.00E+00  0.00E+00  1.48E-05  5.85E-04  1.40E-03  0.00068
    630.  15.873  1.48E-05  5.89E-04  0.00E+00  0.00E+00  0.00E+00  0.00E+00  1.48E-05  5.89E-04  1.43E-03  0.00035
    632.  15.823  1.49E-05  5.95E-04  0.00E+00  0.00E+00  0.00E+00  0.00E+00  1.49E-05  5.95E-04  1.46E-03  0.00009
    634.  15.773  1.49E-05  5.99E-04  0.00E+00  0.00E+00  0.00E+00  0.00E+00  1.49E-05  5.99E-04  1.49E-03  0.00001
    636.  15.723  1.49E-05  6.04E-04  0.00E+00  0.00E+00  0.00E+00  0.00E+00  1.49E-05  6.04E-04  1.52E-03  0.00000
    638.  15.674  1.49E-05  6.08E-04  0.00E+00  0.00E+00  0.00E+00  0.00E+00  1.49E-05  6.08E-04  1.55E-03  0.00000
    640.  15.625  1.50E-05  6.12E-04  0.00E+00  0.00E+00  0.00E+00  0.00E+00  1.50E-05  6.12E-04  1.58E-03  0.00000
    642.  15.576  1.50E-05  6.17E-04  0.00E+00  0.00E+00  0.00E+00  0.00E+00  1.50E-05  6.17E-04  1.61E-03  0.00000
    644.  15.528  1.50E-05  6.21E-04  0.00E+00  0.00E+00  0.00E+00  0.00E+00  1.50E-05  6.21E-04  1.64E-03  0.00000
    646.  15.480  1.50E-05  6.25E-04  0.00E+00  0.00E+00  0.00E+00  0.00E+00  1.50E-05  6.25E-04  1.67E-03  0.00000
    648.  15.432  1.50E-05  6.30E-04  0.00E+00  0.00E+00  0.00E+00  0.00E+00  1.50E-05  6.30E-04  1.70E-03  0.00000
    650.  15.385  1.50E-05  6.34E-04  0.00E+00  0.00E+00  0.00E+00  0.00E+00  1.50E-05  6.34E-04  1.73E-03  0.00000
    652.  15.337  1.50E-05  6.36E-04  0.00E+00  0.00E+00  0.00E+00  0.00E+00  1.50E-05  6.36E-04  1.76E-03  0.00000
    654.  15.291  1.50E-05  6.40E-04  0.00E+00  0.00E+00  0.00E+00  0.00E+00  1.50E-05  6.40E-04  1.79E-03  0.00000
    656.  15.244  1.49E-05  6.43E-04  0.00E+00  0.00E+00  0.00E+00  0.00E+00  1.49E-05  6.43E-04  1.82E-03  0.00000
    658.  15.198  1.49E-05  6.46E-04  0.00E+00  0.00E+00  0.00E+00  0.00E+00  1.49E-05  6.46E-04  1.85E-03  0.00000
    660.  15.152  1.49E-05  6.49E-04  0.00E+00  0.00E+00  0.00E+00  0.00E+00  1.49E-05  6.49E-04  1.88E-03  0.00000
    662.  15.106  1.49E-05  6.53E-04  0.00E+00  0.00E+00  0.00E+00  0.00E+00  1.49E-05  6.53E-04  1.91E-03  0.00000
    664.  15.060  1.49E-05  6.57E-04  0.00E+00  0.00E+00  0.00E+00  0.00E+00  1.49E-05  6.57E-04  1.94E-03  0.00000
    666.  15.015  1.49E-05  6.62E-04  0.00E+00  0.00E+00  0.00E+00  0.00E+00  1.49E-05  6.62E-04  1.97E-03  0.00000
    668.  14.970  1.49E-05  6.66E-04  0.00E+00  0.00E+00  0.00E+00  0.00E+00  1.49E-05  6.66E-04  2.00E-03  0.00000
    670.  14.925  1.49E-05  6.69E-04  0.00E+00  0.00E+00  0.00E+00  0.00E+00  1.49E-05  6.69E-04  2.03E-03  0.00000
    672.  14.881  1.49E-05  6.71E-04  0.00E+00  0.00E+00  0.00E+00  0.00E+00  1.49E-05  6.71E-04  2.06E-03  0.00000
    674.  14.837  1.48E-05  6.73E-04  0.00E+00  0.00E+00  0.00E+00  0.00E+00  1.48E-05  6.73E-04  2.09E-03  0.00000
    676.  14.793  1.48E-05  6.76E-04  0.00E+00  0.00E+00  0.00E+00  0.00E+00  1.48E-05  6.76E-04  2.12E-03  0.00000
    678.  14.749  1.48E-05  6.80E-04  0.00E+00  0.00E+00  0.00E+00  0.00E+00  1.48E-05  6.80E-04  2.15E-03  0.00000
    680.  14.706  1.48E-05  6.83E-04  0.00E+00  0.00E+00  0.00E+00  0.00E+00  1.48E-05  6.83E-04  2.18E-03  0.00000
    682.  14.663  1.47E-05  6.86E-04  0.00E+00  0.00E+00  0.00E+00  0.00E+00  1.47E-05  6.86E-04  2.21E-03  0.00000
    684.  14.620  1.47E-05  6.89E-04  0.00E+00  0.00E+00  0.00E+00  0.00E+00  1.47E-05  6.89E-04  2.24E-03  0.00000
    686.  14.577  1.47E-05  6.91E-04  0.00E+00  0.00E+00  0.00E+00  0.00E+00  1.47E-05  6.91E-04  2.27E-03  0.00000
    688.  14.535  1.47E-05  6.95E-04  0.00E+00  0.00E+00  0.00E+00  0.00E+00  1.47E-05  6.95E-04  2.30E-03  0.00000
    690.  14.493  1.47E-05  6.98E-04  0.00E+00  0.00E+00  0.00E+00  0.00E+00  1.47E-05  6.98E-04  2.33E-03  0.00000
    692.  14.451  1.46E-05  6.99E-04  0.00E+00  0.00E+00  0.00E+00  0.00E+00  1.46E-05  6.99E-04  2.35E-03  0.00000
    694.  14.409  1.46E-05  7.01E-04  0.00E+00  0.00E+00  0.00E+00  0.00E+00  1.46E-05  7.01E-04  2.38E-03  0.00000
    696.  14.368  1.45E-05  7.05E-04  0.00E+00  0.00E+00  0.00E+00  0.00E+00  1.45E-05  7.05E-04  2.41E-03  0.00000
    698.  14.327  1.45E-05  7.06E-04  0.00E+00  0.00E+00  0.00E+00  0.00E+00  1.45E-05  7.06E-04  2.44E-03  0.00000
1                                             RADIANCE(WATTS/CM2-STER-XXX)
0  FREQ   WAVLEN    PATH THERMAL      SURFACE EMISSION    SURFACE REFLECTED     TOTAL RADIANCE   INTEGRAL    TOTAL
  (CM-1) (MICRN)    (CM-1)   (MICRN)    (CM-1)   (MICRN)    (CM-1)   (MICRN)    (CM-1)   (MICRN)    (CM-1)   TRANS

    700.  14.286  1.44E-05  7.07E-04  0.00E+00  0.00E+00  0.00E+00  0.00E+00  1.44E-05  7.07E-04  2.47E-03  0.00000
    702.  14.245  1.44E-05  7.11E-04  0.00E+00  0.00E+00  0.00E+00  0.00E+00  1.44E-05  7.11E-04  2.50E-03  0.00000
    704.  14.205  1.44E-05  7.11E-04  0.00E+00  0.00E+00  0.00E+00  0.00E+00  1.44E-05  7.11E-04  2.53E-03  0.00006
    706.  14.164  1.42E-05  7.09E-04  0.00E+00  0.00E+00  0.00E+00  0.00E+00  1.42E-05  7.09E-04  2.56E-03  0.00046
    708.  14.124  1.42E-05  7.11E-04  0.00E+00  0.00E+00  0.00E+00  0.00E+00  1.42E-05  7.11E-04  2.58E-03  0.00080
    710.  14.085  1.41E-05  7.10E-04  0.00E+00  0.00E+00  0.00E+00  0.00E+00  1.41E-05  7.10E-04  2.61E-03  0.00226
    712.  14.045  1.38E-05  7.02E-04  0.00E+00  0.00E+00  0.00E+00  0.00E+00  1.38E-05  7.02E-04  2.64E-03  0.00785
    714.  14.006  1.37E-05  6.96E-04  0.00E+00  0.00E+00  0.00E+00  0.00E+00  1.37E-05  6.96E-04  2.67E-03  0.01271
    716.  13.966  1.35E-05  6.91E-04  0.00E+00  0.00E+00  0.00E+00  0.00E+00  1.35E-05  6.91E-04  2.69E-03  0.01656
    718.  13.928  1.39E-05  7.18E-04  0.00E+00  0.00E+00  0.00E+00  0.00E+00  1.39E-05  7.18E-04  2.72E-03  0.00409
    720.  13.889  1.43E-05  7.41E-04  0.00E+00  0.00E+00  0.00E+00  0.00E+00  1.43E-05  7.41E-04  2.75E-03  0.00000
    722.  13.850  1.31E-05  6.85E-04  0.00E+00  0.00E+00  0.00E+00  0.00E+00  1.31E-05  6.85E-04  2.78E-03  0.02922
    724.  13.812  1.21E-05  6.37E-04  0.00E+00  0.00E+00  0.00E+00  0.00E+00  1.21E-05  6.37E-04  2.80E-03  0.06894
    726.  13.774  1.08E-05  5.67E-04  0.00E+00  0.00E+00  0.00E+00  0.00E+00  1.08E-05  5.67E-04  2.82E-03  0.16055
    728.  13.736  1.15E-05  6.12E-04  0.00E+00  0.00E+00  0.00E+00  0.00E+00  1.15E-05  6.12E-04  2.85E-03  0.10447
    730.  13.699  1.22E-05  6.48E-04  0.00E+00  0.00E+00  0.00E+00  0.00E+00  1.22E-05  6.48E-04  2.87E-03  0.07352
    732.  13.661  1.24E-05  6.62E-04  0.00E+00  0.00E+00  0.00E+00  0.00E+00  1.24E-05  6.62E-04  2.90E-03  0.06333
    734.  13.624  1.19E-05  6.39E-04  0.00E+00  0.00E+00  0.00E+00  0.00E+00  1.19E-05  6.39E-04  2.92E-03  0.08401
    736.  13.587  1.22E-05  6.59E-04  0.00E+00  0.00E+00  0.00E+00  0.00E+00  1.22E-05  6.59E-04  2.94E-03  0.07261
    738.  13.550  1.24E-05  6.77E-04  0.00E+00  0.00E+00  0.00E+00  0.00E+00  1.24E-05  6.77E-04  2.97E-03  0.05751
    740.  13.514  1.25E-05  6.83E-04  0.00E+00  0.00E+00  0.00E+00  0.00E+00  1.25E-05  6.83E-04  2.99E-03  0.05136
    742.  13.477  1.24E-05  6.82E-04  0.00E+00  0.00E+00  0.00E+00  0.00E+00  1.24E-05  6.82E-04  3.02E-03  0.07243
    744.  13.441  1.02E-05  5.66E-04  0.00E+00  0.00E+00  0.00E+00  0.00E+00  1.02E-05  5.66E-04  3.04E-03  0.19228
    746.  13.405  8.88E-06  4.94E-04  0.00E+00  0.00E+00  0.00E+00  0.00E+00  8.88E-06  4.94E-04  3.06E-03  0.28274
    748.  13.369  9.05E-06  5.06E-04  0.00E+00  0.00E+00  0.00E+00  0.00E+00  9.05E-06  5.06E-04  3.07E-03  0.27746
    750.  13.333  8.79E-06  4.95E-04  0.00E+00  0.00E+00  0.00E+00  0.00E+00  8.79E-06  4.95E-04  3.09E-03  0.28897
    752.  13.298  7.09E-06  4.01E-04  0.00E+00  0.00E+00  0.00E+00  0.00E+00  7.09E-06  4.01E-04  3.11E-03  0.41386
    754.  13.263  7.59E-06  4.32E-04  0.00E+00  0.00E+00  0.00E+00  0.00E+00  7.59E-06  4.32E-04  3.12E-03  0.37443
    756.  13.228  7.39E-06  4.22E-04  0.00E+00  0.00E+00  0.00E+00  0.00E+00  7.39E-06  4.22E-04  3.14E-03  0.38081
    758.  13.193  5.51E-06  3.17E-04  0.00E+00  0.00E+00  0.00E+00  0.00E+00  5.51E-06  3.17E-04  3.15E-03  0.52920
    760.  13.158  4.82E-06  2.79E-04  0.00E+00  0.00E+00  0.00E+00  0.00E+00  4.82E-06  2.79E-04  3.16E-03  0.59000
    762.  13.123  4.09E-06  2.37E-04  0.00E+00  0.00E+00  0.00E+00  0.00E+00  4.09E-06  2.37E-04  3.16E-03  0.64605
    764.  13.089  2.88E-06  1.68E-04  0.00E+00  0.00E+00  0.00E+00  0.00E+00  2.88E-06  1.68E-04  3.17E-03  0.74772
    766.  13.055  3.01E-06  1.77E-04  0.00E+00  0.00E+00  0.00E+00  0.00E+00  3.01E-06  1.77E-04  3.18E-03  0.73648
    768.  13.021  2.49E-06  1.47E-04  0.00E+00  0.00E+00  0.00E+00  0.00E+00  2.49E-06  1.47E-04  3.18E-03  0.78197
    770.  12.987  2.13E-06  1.26E-04  0.00E+00  0.00E+00  0.00E+00  0.00E+00  2.13E-06  1.26E-04  3.19E-03  0.81190
    772.  12.953  1.85E-06  1.10E-04  0.00E+00  0.00E+00  0.00E+00  0.00E+00  1.85E-06  1.10E-04  3.19E-03  0.83719
    774.  12.920  1.74E-06  1.04E-04  0.00E+00  0.00E+00  0.00E+00  0.00E+00  1.74E-06  1.04E-04  3.19E-03  0.84758
    776.  12.887  1.57E-06  9.44E-05  0.00E+00  0.00E+00  0.00E+00  0.00E+00  1.57E-06  9.44E-05  3.20E-03  0.86166
    778.  12.853  1.35E-06  8.19E-05  0.00E+00  0.00E+00  0.00E+00  0.00E+00  1.35E-06  8.19E-05  3.20E-03  0.88200
    780.  12.821  1.29E-06  7.88E-05  0.00E+00  0.00E+00  0.00E+00  0.00E+00  1.29E-06  7.88E-05  3.20E-03  0.88747
    782.  12.788  1.31E-06  7.99E-05  0.00E+00  0.00E+00  0.00E+00  0.00E+00  1.31E-06  7.99E-05  3.20E-03  0.88580
    784.  12.755  1.21E-06  7.45E-05  0.00E+00  0.00E+00  0.00E+00  0.00E+00  1.21E-06  7.45E-05  3.21E-03  0.89321
    786.  12.723  1.08E-06  6.65E-05  0.00E+00  0.00E+00  0.00E+00  0.00E+00  1.08E-06  6.65E-05  3.21E-03  0.90746
    788.  12.690  1.04E-06  6.44E-05  0.00E+00  0.00E+00  0.00E+00  0.00E+00  1.04E-06  6.44E-05  3.21E-03  0.91150
    790.  12.658  1.43E-06  8.93E-05  0.00E+00  0.00E+00  0.00E+00  0.00E+00  1.43E-06  8.93E-05  3.21E-03  0.87348
    792.  12.626  4.84E-06  3.04E-04  0.00E+00  0.00E+00  0.00E+00  0.00E+00  4.84E-06  3.04E-04  3.22E-03  0.56419
    794.  12.594  1.54E-06  9.71E-05  0.00E+00  0.00E+00  0.00E+00  0.00E+00  1.54E-06  9.71E-05  3.23E-03  0.86231
    796.  12.563  1.15E-06  7.26E-05  0.00E+00  0.00E+00  0.00E+00  0.00E+00  1.15E-06  7.26E-05  3.23E-03  0.89758
    798.  12.531  1.24E-06  7.87E-05  0.00E+00  0.00E+00  0.00E+00  0.00E+00  1.24E-06  7.87E-05  3.23E-03  0.88886
1                                             RADIANCE(WATTS/CM2-STER-XXX)
0  FREQ   WAVLEN    PATH THERMAL      SURFACE EMISSION    SURFACE REFLECTED     TOTAL RADIANCE   INTEGRAL    TOTAL
  (CM-1) (MICRN)    (CM-1)   (MICRN)    (CM-1)   (MICRN)    (CM-1)   (MICRN)    (CM-1)   (MICRN)    (CM-1)   TRANS

    800.  12.500  1.15E-06  7.34E-05  0.00E+00  0.00E+00  0.00E+00  0.00E+00  1.15E-06  7.34E-05  3.23E-03  0.89862
    802.  12.469  1.26E-06  8.14E-05  0.00E+00  0.00E+00  0.00E+00  0.00E+00  1.26E-06  8.14E-05  3.24E-03  0.88812
    804.  12.438  1.15E-06  7.44E-05  0.00E+00  0.00E+00  0.00E+00  0.00E+00  1.15E-06  7.44E-05  3.24E-03  0.89955
    806.  12.407  1.25E-06  8.12E-05  0.00E+00  0.00E+00  0.00E+00  0.00E+00  1.25E-06  8.12E-05  3.24E-03  0.88978
    808.  12.376  1.22E-06  7.97E-05  0.00E+00  0.00E+00  0.00E+00  0.00E+00  1.22E-06  7.97E-05  3.24E-03  0.89234
    810.  12.346  1.09E-06  7.13E-05  0.00E+00  0.00E+00  0.00E+00  0.00E+00  1.09E-06  7.13E-05  3.25E-03  0.90594
    812.  12.315  1.13E-06  7.47E-05  0.00E+00  0.00E+00  0.00E+00  0.00E+00  1.13E-06  7.47E-05  3.25E-03  0.90128
    814.  12.285  1.02E-06  6.77E-05  0.00E+00  0.00E+00  0.00E+00  0.00E+00  1.02E-06  6.77E-05  3.25E-03  0.91184
    816.  12.255  1.05E-06  6.98E-05  0.00E+00  0.00E+00  0.00E+00  0.00E+00  1.05E-06  6.98E-05  3.25E-03  0.90918
    818.  12.225  9.59E-07  6.42E-05  0.00E+00  0.00E+00  0.00E+00  0.00E+00  9.59E-07  6.42E-05  3.25E-03  0.91812
    820.  12.195  9.66E-07  6.49E-05  0.00E+00  0.00E+00  0.00E+00  0.00E+00  9.66E-07  6.49E-05  3.26E-03  0.91743
    822.  12.165  9.22E-07  6.23E-05  0.00E+00  0.00E+00  0.00E+00  0.00E+00  9.22E-07  6.23E-05  3.26E-03  0.92169
    824.  12.136  8.78E-07  5.96E-05  0.00E+00  0.00E+00  0.00E+00  0.00E+00  8.78E-07  5.96E-05  3.26E-03  0.92601
    826.  12.107  8.64E-07  5.89E-05  0.00E+00  0.00E+00  0.00E+00  0.00E+00  8.64E-07  5.89E-05  3.26E-03  0.92739
    828.  12.077  9.60E-07  6.58E-05  0.00E+00  0.00E+00  0.00E+00  0.00E+00  9.60E-07  6.58E-05  3.26E-03  0.91785
    830.  12.048  8.76E-07  6.04E-05  0.00E+00  0.00E+00  0.00E+00  0.00E+00  8.76E-07  6.04E-05  3.26E-03  0.92604
    832.  12.019  8.53E-07  5.90E-05  0.00E+00  0.00E+00  0.00E+00  0.00E+00  8.53E-07  5.90E-05  3.27E-03  0.92811
    834.  11.990  8.58E-07  5.97E-05  0.00E+00  0.00E+00  0.00E+00  0.00E+00  8.58E-07  5.97E-05  3.27E-03  0.92737
    836.  11.962  8.57E-07  5.99E-05  0.00E+00  0.00E+00  0.00E+00  0.00E+00  8.57E-07  5.99E-05  3.27E-03  0.92707
    838.  11.933  8.65E-07  6.08E-05  0.00E+00  0.00E+00  0.00E+00  0.00E+00  8.65E-07  6.08E-05  3.27E-03  0.92583
    840.  11.905  8.74E-07  6.17E-05  0.00E+00  0.00E+00  0.00E+00  0.00E+00  8.74E-07  6.17E-05  3.27E-03  0.92440
    842.  11.876  8.94E-07  6.34E-05  0.00E+00  0.00E+00  0.00E+00  0.00E+00  8.94E-07  6.34E-05  3.28E-03  0.92156
    844.  11.848  9.15E-07  6.52E-05  0.00E+00  0.00E+00  0.00E+00  0.00E+00  9.15E-07  6.52E-05  3.28E-03  0.91825
    846.  11.820  9.28E-07  6.64E-05  0.00E+00  0.00E+00  0.00E+00  0.00E+00  9.28E-07  6.64E-05  3.28E-03  0.91598
    848.  11.792  9.27E-07  6.66E-05  0.00E+00  0.00E+00  0.00E+00  0.00E+00  9.27E-07  6.66E-05  3.28E-03  0.91579
    850.  11.765  9.22E-07  6.66E-05  0.00E+00  0.00E+00  0.00E+00  0.00E+00  9.22E-07  6.66E-05  3.28E-03  0.91573
    852.  11.737  9.01E-07  6.54E-05  0.00E+00  0.00E+00  0.00E+00  0.00E+00  9.01E-07  6.54E-05  3.28E-03  0.91838
    854.  11.710  8.79E-07  6.41E-05  0.00E+00  0.00E+00  0.00E+00  0.00E+00  8.79E-07  6.41E-05  3.29E-03  0.92152
    856.  11.682  8.60E-07  6.30E-05  0.00E+00  0.00E+00  0.00E+00  0.00E+00  8.60E-07  6.30E-05  3.29E-03  0.92357
    858.  11.655  8.52E-07  6.27E-05  0.00E+00  0.00E+00  0.00E+00  0.00E+00  8.52E-07  6.27E-05  3.29E-03  0.92426
    860.  11.628  8.42E-07  6.23E-05  0.00E+00  0.00E+00  0.00E+00  0.00E+00  8.42E-07  6.23E-05  3.29E-03  0.92483
    862.  11.601  8.44E-07  6.27E-05  0.00E+00  0.00E+00  0.00E+00  0.00E+00  8.44E-07  6.27E-05  3.29E-03  0.92416
    864.  11.574  8.69E-07  6.49E-05  0.00E+00  0.00E+00  0.00E+00  0.00E+00  8.69E-07  6.49E-05  3.29E-03  0.92062
    866.  11.547  8.49E-07  6.36E-05  0.00E+00  0.00E+00  0.00E+00  0.00E+00  8.49E-07  6.36E-05  3.30E-03  0.92228
    868.  11.521  8.59E-07  6.47E-05  0.00E+00  0.00E+00  0.00E+00  0.00E+00  8.59E-07  6.47E-05  3.30E-03  0.92060
    870.  11.494  8.53E-07  6.46E-05  0.00E+00  0.00E+00  0.00E+00  0.00E+00  8.53E-07  6.46E-05  3.30E-03  0.92077
    872.  11.468  8.58E-07  6.53E-05  0.00E+00  0.00E+00  0.00E+00  0.00E+00  8.58E-07  6.53E-05  3.30E-03  0.91996
    874.  11.442  8.58E-07  6.56E-05  0.00E+00  0.00E+00  0.00E+00  0.00E+00  8.58E-07  6.56E-05  3.30E-03  0.91986
    876.  11.416  8.60E-07  6.60E-05  0.00E+00  0.00E+00  0.00E+00  0.00E+00  8.60E-07  6.60E-05  3.30E-03  0.91948
    878.  11.390  8.74E-07  6.73E-05  0.00E+00  0.00E+00  0.00E+00  0.00E+00  8.74E-07  6.73E-05  3.31E-03  0.91498
    880.  11.364  8.73E-07  6.76E-05  0.00E+00  0.00E+00  0.00E+00  0.00E+00  8.73E-07  6.76E-05  3.31E-03  0.91539
    882.  11.338  8.71E-07  6.78E-05  0.00E+00  0.00E+00  0.00E+00  0.00E+00  8.71E-07  6.78E-05  3.31E-03  0.91624
    884.  11.312  8.76E-07  6.85E-05  0.00E+00  0.00E+00  0.00E+00  0.00E+00  8.76E-07  6.85E-05  3.31E-03  0.91452
    886.  11.287  8.77E-07  6.89E-05  0.00E+00  0.00E+00  0.00E+00  0.00E+00  8.77E-07  6.89E-05  3.31E-03  0.91393
    888.  11.261  8.89E-07  7.01E-05  0.00E+00  0.00E+00  0.00E+00  0.00E+00  8.89E-07  7.01E-05  3.32E-03  0.91184
    890.  11.236  8.83E-07  6.99E-05  0.00E+00  0.00E+00  0.00E+00  0.00E+00  8.83E-07  6.99E-05  3.32E-03  0.91264
    892.  11.211  8.90E-07  7.08E-05  0.00E+00  0.00E+00  0.00E+00  0.00E+00  8.90E-07  7.08E-05  3.32E-03  0.91192
    894.  11.186  8.79E-07  7.02E-05  0.00E+00  0.00E+00  0.00E+00  0.00E+00  8.79E-07  7.02E-05  3.32E-03  0.91385
    896.  11.161  8.93E-07  7.17E-05  0.00E+00  0.00E+00  0.00E+00  0.00E+00  8.93E-07  7.17E-05  3.32E-03  0.90893
    898.  11.136  8.78E-07  7.08E-05  0.00E+00  0.00E+00  0.00E+00  0.00E+00  8.78E-07  7.08E-05  3.32E-03  0.91474
1                                             RADIANCE(WATTS/CM2-STER-XXX)
0  FREQ   WAVLEN    PATH THERMAL      SURFACE EMISSION    SURFACE REFLECTED     TOTAL RADIANCE   INTEGRAL    TOTAL
  (CM-1) (MICRN)    (CM-1)   (MICRN)    (CM-1)   (MICRN)    (CM-1)   (MICRN)    (CM-1)   (MICRN)    (CM-1)   TRANS

    900.  11.111  8.81E-07  7.14E-05  0.00E+00  0.00E+00  0.00E+00  0.00E+00  8.81E-07  7.14E-05  3.33E-03  0.91423
    902.  11.086  8.82E-07  7.18E-05  0.00E+00  0.00E+00  0.00E+00  0.00E+00  8.82E-07  7.18E-05  3.33E-03  0.91405
    904.  11.062  8.88E-07  7.26E-05  0.00E+00  0.00E+00  0.00E+00  0.00E+00  8.88E-07  7.26E-05  3.33E-03  0.91304
    906.  11.038  8.94E-07  7.34E-05  0.00E+00  0.00E+00  0.00E+00  0.00E+00  8.94E-07  7.34E-05  3.33E-03  0.91186
    908.  11.013  9.16E-07  7.55E-05  0.00E+00  0.00E+00  0.00E+00  0.00E+00  9.16E-07  7.55E-05  3.33E-03  0.90873
    910.  10.989  9.22E-07  7.64E-05  0.00E+00  0.00E+00  0.00E+00  0.00E+00  9.22E-07  7.64E-05  3.34E-03  0.90744
    912.  10.965  9.25E-07  7.70E-05  0.00E+00  0.00E+00  0.00E+00  0.00E+00  9.25E-07  7.70E-05  3.34E-03  0.90734
    914.  10.941  9.32E-07  7.79E-05  0.00E+00  0.00E+00  0.00E+00  0.00E+00  9.32E-07  7.79E-05  3.34E-03  0.90676
    916.  10.917  9.34E-07  7.83E-05  0.00E+00  0.00E+00  0.00E+00  0.00E+00  9.34E-07  7.83E-05  3.34E-03  0.90674
    918.  10.893  9.42E-07  7.94E-05  0.00E+00  0.00E+00  0.00E+00  0.00E+00  9.42E-07  7.94E-05  3.34E-03  0.90595
    920.  10.870  9.57E-07  8.10E-05  0.00E+00  0.00E+00  0.00E+00  0.00E+00  9.57E-07  8.10E-05  3.34E-03  0.90390
    922.  10.846  9.93E-07  8.44E-05  0.00E+00  0.00E+00  0.00E+00  0.00E+00  9.93E-07  8.44E-05  3.35E-03  0.89818
    924.  10.823  9.66E-07  8.25E-05  0.00E+00  0.00E+00  0.00E+00  0.00E+00  9.66E-07  8.25E-05  3.35E-03  0.90253
    926.  10.799  9.81E-07  8.41E-05  0.00E+00  0.00E+00  0.00E+00  0.00E+00  9.81E-07  8.41E-05  3.35E-03  0.90062
    928.  10.776  1.01E-06  8.67E-05  0.00E+00  0.00E+00  0.00E+00  0.00E+00  1.01E-06  8.67E-05  3.35E-03  0.89694
    930.  10.753  1.04E-06  9.03E-05  0.00E+00  0.00E+00  0.00E+00  0.00E+00  1.04E-06  9.03E-05  3.35E-03  0.89248
    932.  10.730  1.07E-06  9.28E-05  0.00E+00  0.00E+00  0.00E+00  0.00E+00  1.07E-06  9.28E-05  3.36E-03  0.89002
    934.  10.707  1.06E-06  9.26E-05  0.00E+00  0.00E+00  0.00E+00  0.00E+00  1.06E-06  9.26E-05  3.36E-03  0.89114
    936.  10.684  1.07E-06  9.40E-05  0.00E+00  0.00E+00  0.00E+00  0.00E+00  1.07E-06  9.40E-05  3.36E-03  0.88981
    938.  10.661  1.09E-06  9.60E-05  0.00E+00  0.00E+00  0.00E+00  0.00E+00  1.09E-06  9.60E-05  3.36E-03  0.88758
    940.  10.638  1.11E-06  9.82E-05  0.00E+00  0.00E+00  0.00E+00  0.00E+00  1.11E-06  9.82E-05  3.37E-03  0.88471
    942.  10.616  1.25E-06  1.11E-04  0.00E+00  0.00E+00  0.00E+00  0.00E+00  1.25E-06  1.11E-04  3.37E-03  0.86713
    944.  10.593  1.16E-06  1.03E-04  0.00E+00  0.00E+00  0.00E+00  0.00E+00  1.16E-06  1.03E-04  3.37E-03  0.87812
    946.  10.571  1.17E-06  1.05E-04  0.00E+00  0.00E+00  0.00E+00  0.00E+00  1.17E-06  1.05E-04  3.37E-03  0.87597
    948.  10.549  1.30E-06  1.17E-04  0.00E+00  0.00E+00  0.00E+00  0.00E+00  1.30E-06  1.17E-04  3.37E-03  0.85925
    950.  10.526  1.16E-06  1.05E-04  0.00E+00  0.00E+00  0.00E+00  0.00E+00  1.16E-06  1.05E-04  3.38E-03  0.87633
    952.  10.504  1.15E-06  1.04E-04  0.00E+00  0.00E+00  0.00E+00  0.00E+00  1.15E-06  1.04E-04  3.38E-03  0.87680
    954.  10.482  1.11E-06  1.01E-04  0.00E+00  0.00E+00  0.00E+00  0.00E+00  1.11E-06  1.01E-04  3.38E-03  0.88169
    956.  10.460  1.14E-06  1.05E-04  0.00E+00  0.00E+00  0.00E+00  0.00E+00  1.14E-06  1.05E-04  3.38E-03  0.87623
    958.  10.438  1.03E-06  9.41E-05  0.00E+00  0.00E+00  0.00E+00  0.00E+00  1.03E-06  9.41E-05  3.39E-03  0.89089
    960.  10.417  9.09E-07  8.38E-05  0.00E+00  0.00E+00  0.00E+00  0.00E+00  9.09E-07  8.38E-05  3.39E-03  0.90573
    962.  10.395  9.53E-07  8.82E-05  0.00E+00  0.00E+00  0.00E+00  0.00E+00  9.53E-07  8.82E-05  3.39E-03  0.89951
    964.  10.373  1.02E-06  9.44E-05  0.00E+00  0.00E+00  0.00E+00  0.00E+00  1.02E-06  9.44E-05  3.39E-03  0.89110
    966.  10.352  1.16E-06  1.09E-04  0.00E+00  0.00E+00  0.00E+00  0.00E+00  1.16E-06  1.09E-04  3.39E-03  0.87132
    968.  10.331  1.24E-06  1.16E-04  0.00E+00  0.00E+00  0.00E+00  0.00E+00  1.24E-06  1.16E-04  3.40E-03  0.86114
    970.  10.309  1.17E-06  1.10E-04  0.00E+00  0.00E+00  0.00E+00  0.00E+00  1.17E-06  1.10E-04  3.40E-03  0.86980
    972.  10.288  1.40E-06  1.33E-04  0.00E+00  0.00E+00  0.00E+00  0.00E+00  1.40E-06  1.33E-04  3.40E-03  0.83832
    974.  10.267  1.18E-06  1.12E-04  0.00E+00  0.00E+00  0.00E+00  0.00E+00  1.18E-06  1.12E-04  3.40E-03  0.86629
    976.  10.246  1.37E-06  1.31E-04  0.00E+00  0.00E+00  0.00E+00  0.00E+00  1.37E-06  1.31E-04  3.41E-03  0.83981
    978.  10.225  1.24E-06  1.18E-04  0.00E+00  0.00E+00  0.00E+00  0.00E+00  1.24E-06  1.18E-04  3.41E-03  0.85639
    980.  10.204  1.19E-06  1.14E-04  0.00E+00  0.00E+00  0.00E+00  0.00E+00  1.19E-06  1.14E-04  3.41E-03  0.86114
    982.  10.183  1.19E-06  1.15E-04  0.00E+00  0.00E+00  0.00E+00  0.00E+00  1.19E-06  1.15E-04  3.41E-03  0.85725
    984.  10.163  1.13E-06  1.09E-04  0.00E+00  0.00E+00  0.00E+00  0.00E+00  1.13E-06  1.09E-04  3.42E-03  0.86363
    986.  10.142  1.04E-06  1.01E-04  0.00E+00  0.00E+00  0.00E+00  0.00E+00  1.04E-06  1.01E-04  3.42E-03  0.87034
    988.  10.121  1.07E-06  1.05E-04  0.00E+00  0.00E+00  0.00E+00  0.00E+00  1.07E-06  1.05E-04  3.42E-03  0.86098
    990.  10.101  1.06E-06  1.04E-04  0.00E+00  0.00E+00  0.00E+00  0.00E+00  1.06E-06  1.04E-04  3.42E-03  0.85644
    992.  10.081  1.10E-06  1.08E-04  0.00E+00  0.00E+00  0.00E+00  0.00E+00  1.10E-06  1.08E-04  3.43E-03  0.84143
    994.  10.060  1.10E-06  1.09E-04  0.00E+00  0.00E+00  0.00E+00  0.00E+00  1.10E-06  1.09E-04  3.43E-03  0.83310
    996.  10.040  1.14E-06  1.13E-04  0.00E+00  0.00E+00  0.00E+00  0.00E+00  1.14E-06  1.13E-04  3.43E-03  0.81587
    998.  10.020  1.21E-06  1.21E-04  0.00E+00  0.00E+00  0.00E+00  0.00E+00  1.21E-06  1.21E-04  3.43E-03  0.78934
1                                             RADIANCE(WATTS/CM2-STER-XXX)
0  FREQ   WAVLEN    PATH THERMAL      SURFACE EMISSION    SURFACE REFLECTED     TOTAL RADIANCE   INTEGRAL    TOTAL
  (CM-1) (MICRN)    (CM-1)   (MICRN)    (CM-1)   (MICRN)    (CM-1)   (MICRN)    (CM-1)   (MICRN)    (CM-1)   TRANS

   1000.  10.000  1.25E-06  1.25E-04  0.00E+00  0.00E+00  0.00E+00  0.00E+00  1.25E-06  1.25E-04  3.43E-03  0.77423
   1002.   9.980  1.34E-06  1.35E-04  0.00E+00  0.00E+00  0.00E+00  0.00E+00  1.34E-06  1.35E-04  3.44E-03  0.73730
   1004.   9.960  1.38E-06  1.40E-04  0.00E+00  0.00E+00  0.00E+00  0.00E+00  1.38E-06  1.40E-04  3.44E-03  0.72021
   1006.   9.940  1.48E-06  1.50E-04  0.00E+00  0.00E+00  0.00E+00  0.00E+00  1.48E-06  1.50E-04  3.44E-03  0.68023
   1008.   9.921  1.52E-06  1.54E-04  0.00E+00  0.00E+00  0.00E+00  0.00E+00  1.52E-06  1.54E-04  3.45E-03  0.66697
   1010.   9.901  1.60E-06  1.64E-04  0.00E+00  0.00E+00  0.00E+00  0.00E+00  1.60E-06  1.64E-04  3.45E-03  0.63507
   1012.   9.881  1.69E-06  1.73E-04  0.00E+00  0.00E+00  0.00E+00  0.00E+00  1.69E-06  1.73E-04  3.45E-03  0.60358
   1014.   9.862  1.77E-06  1.82E-04  0.00E+00  0.00E+00  0.00E+00  0.00E+00  1.77E-06  1.82E-04  3.46E-03  0.57234
   1016.   9.843  1.80E-06  1.85E-04  0.00E+00  0.00E+00  0.00E+00  0.00E+00  1.80E-06  1.85E-04  3.46E-03  0.56299
   1018.   9.823  1.94E-06  2.01E-04  0.00E+00  0.00E+00  0.00E+00  0.00E+00  1.94E-06  2.01E-04  3.46E-03  0.51417
   1020.   9.804  2.00E-06  2.08E-04  0.00E+00  0.00E+00  0.00E+00  0.00E+00  2.00E-06  2.08E-04  3.47E-03  0.49390
   1022.   9.785  2.10E-06  2.19E-04  0.00E+00  0.00E+00  0.00E+00  0.00E+00  2.10E-06  2.19E-04  3.47E-03  0.46665
   1024.   9.766  2.12E-06  2.23E-04  0.00E+00  0.00E+00  0.00E+00  0.00E+00  2.12E-06  2.23E-04  3.48E-03  0.45396
   1026.   9.747  2.10E-06  2.21E-04  0.00E+00  0.00E+00  0.00E+00  0.00E+00  2.10E-06  2.21E-04  3.48E-03  0.46633
   1028.   9.728  2.13E-06  2.25E-04  0.00E+00  0.00E+00  0.00E+00  0.00E+00  2.13E-06  2.25E-04  3.48E-03  0.45658
   1030.   9.709  2.21E-06  2.34E-04  0.00E+00  0.00E+00  0.00E+00  0.00E+00  2.21E-06  2.34E-04  3.49E-03  0.43168
   1032.   9.690  2.14E-06  2.27E-04  0.00E+00  0.00E+00  0.00E+00  0.00E+00  2.14E-06  2.27E-04  3.49E-03  0.45010
   1034.   9.671  2.15E-06  2.30E-04  0.00E+00  0.00E+00  0.00E+00  0.00E+00  2.15E-06  2.30E-04  3.50E-03  0.43856
   1036.   9.653  2.25E-06  2.41E-04  0.00E+00  0.00E+00  0.00E+00  0.00E+00  2.25E-06  2.41E-04  3.50E-03  0.40405
   1038.   9.634  2.33E-06  2.51E-04  0.00E+00  0.00E+00  0.00E+00  0.00E+00  2.33E-06  2.51E-04  3.51E-03  0.38023
   1040.   9.615  2.43E-06  2.63E-04  0.00E+00  0.00E+00  0.00E+00  0.00E+00  2.43E-06  2.63E-04  3.51E-03  0.34560
   1042.   9.597  1.92E-06  2.08E-04  0.00E+00  0.00E+00  0.00E+00  0.00E+00  1.92E-06  2.08E-04  3.52E-03  0.53628
   1044.   9.579  1.58E-06  1.72E-04  0.00E+00  0.00E+00  0.00E+00  0.00E+00  1.58E-06  1.72E-04  3.52E-03  0.68831
   1046.   9.560  2.03E-06  2.22E-04  0.00E+00  0.00E+00  0.00E+00  0.00E+00  2.03E-06  2.22E-04  3.52E-03  0.50402
   1048.   9.542  2.41E-06  2.64E-04  0.00E+00  0.00E+00  0.00E+00  0.00E+00  2.41E-06  2.64E-04  3.53E-03  0.38254
   1050.   9.524  2.65E-06  2.92E-04  0.00E+00  0.00E+00  0.00E+00  0.00E+00  2.65E-06  2.92E-04  3.53E-03  0.35343
   1052.   9.506  2.75E-06  3.04E-04  0.00E+00  0.00E+00  0.00E+00  0.00E+00  2.75E-06  3.04E-04  3.54E-03  0.31725
   1054.   9.488  2.77E-06  3.08E-04  0.00E+00  0.00E+00  0.00E+00  0.00E+00  2.77E-06  3.08E-04  3.54E-03  0.31213
   1056.   9.470  2.83E-06  3.15E-04  0.00E+00  0.00E+00  0.00E+00  0.00E+00  2.83E-06  3.15E-04  3.55E-03  0.30411
   1058.   9.452  2.55E-06  2.85E-04  0.00E+00  0.00E+00  0.00E+00  0.00E+00  2.55E-06  2.85E-04  3.55E-03  0.35880
   1060.   9.434  2.30E-06  2.58E-04  0.00E+00  0.00E+00  0.00E+00  0.00E+00  2.30E-06  2.58E-04  3.56E-03  0.41801
   1062.   9.416  2.11E-06  2.38E-04  0.00E+00  0.00E+00  0.00E+00  0.00E+00  2.11E-06  2.38E-04  3.56E-03  0.46444
   1064.   9.398  1.74E-06  1.97E-04  0.00E+00  0.00E+00  0.00E+00  0.00E+00  1.74E-06  1.97E-04  3.57E-03  0.57471
   1066.   9.381  1.60E-06  1.82E-04  0.00E+00  0.00E+00  0.00E+00  0.00E+00  1.60E-06  1.82E-04  3.57E-03  0.66054
   1068.   9.363  1.56E-06  1.78E-04  0.00E+00  0.00E+00  0.00E+00  0.00E+00  1.56E-06  1.78E-04  3.57E-03  0.71308
   1070.   9.346  1.52E-06  1.74E-04  0.00E+00  0.00E+00  0.00E+00  0.00E+00  1.52E-06  1.74E-04  3.58E-03  0.75644
   1072.   9.328  1.51E-06  1.73E-04  0.00E+00  0.00E+00  0.00E+00  0.00E+00  1.51E-06  1.73E-04  3.58E-03  0.77615
   1074.   9.311  1.43E-06  1.64E-04  0.00E+00  0.00E+00  0.00E+00  0.00E+00  1.43E-06  1.64E-04  3.58E-03  0.78798
   1076.   9.294  1.69E-06  1.95E-04  0.00E+00  0.00E+00  0.00E+00  0.00E+00  1.69E-06  1.95E-04  3.59E-03  0.74567
   1078.   9.276  1.42E-06  1.65E-04  0.00E+00  0.00E+00  0.00E+00  0.00E+00  1.42E-06  1.65E-04  3.59E-03  0.79209
   1080.   9.259  1.64E-06  1.91E-04  0.00E+00  0.00E+00  0.00E+00  0.00E+00  1.64E-06  1.91E-04  3.59E-03  0.75087
   1082.   9.242  1.57E-06  1.83E-04  0.00E+00  0.00E+00  0.00E+00  0.00E+00  1.57E-06  1.83E-04  3.59E-03  0.76131
   1084.   9.225  1.32E-06  1.56E-04  0.00E+00  0.00E+00  0.00E+00  0.00E+00  1.32E-06  1.56E-04  3.60E-03  0.80427
   1086.   9.208  1.42E-06  1.67E-04  0.00E+00  0.00E+00  0.00E+00  0.00E+00  1.42E-06  1.67E-04  3.60E-03  0.78467
   1088.   9.191  1.31E-06  1.55E-04  0.00E+00  0.00E+00  0.00E+00  0.00E+00  1.31E-06  1.55E-04  3.60E-03  0.79972
   1090.   9.174  1.23E-06  1.46E-04  0.00E+00  0.00E+00  0.00E+00  0.00E+00  1.23E-06  1.46E-04  3.61E-03  0.81407
   1092.   9.158  1.17E-06  1.39E-04  0.00E+00  0.00E+00  0.00E+00  0.00E+00  1.17E-06  1.39E-04  3.61E-03  0.82540
   1094.   9.141  1.12E-06  1.34E-04  0.00E+00  0.00E+00  0.00E+00  0.00E+00  1.12E-06  1.34E-04  3.61E-03  0.82723
   1096.   9.124  1.09E-06  1.31E-04  0.00E+00  0.00E+00  0.00E+00  0.00E+00  1.09E-06  1.31E-04  3.61E-03  0.83646
   1098.   9.107  1.07E-06  1.29E-04  0.00E+00  0.00E+00  0.00E+00  0.00E+00  1.07E-06  1.29E-04  3.61E-03  0.83761
1                                             RADIANCE(WATTS/CM2-STER-XXX)
0  FREQ   WAVLEN    PATH THERMAL      SURFACE EMISSION    SURFACE REFLECTED     TOTAL RADIANCE   INTEGRAL    TOTAL
  (CM-1) (MICRN)    (CM-1)   (MICRN)    (CM-1)   (MICRN)    (CM-1)   (MICRN)    (CM-1)   (MICRN)    (CM-1)   TRANS

   1100.   9.091  1.05E-06  1.28E-04  0.00E+00  0.00E+00  0.00E+00  0.00E+00  1.05E-06  1.28E-04  3.62E-03  0.83829
   1102.   9.074  1.05E-06  1.28E-04  0.00E+00  0.00E+00  0.00E+00  0.00E+00  1.05E-06  1.28E-04  3.62E-03  0.83735
   1104.   9.058  1.03E-06  1.26E-04  0.00E+00  0.00E+00  0.00E+00  0.00E+00  1.03E-06  1.26E-04  3.62E-03  0.84256
   1106.   9.042  1.02E-06  1.24E-04  0.00E+00  0.00E+00  0.00E+00  0.00E+00  1.02E-06  1.24E-04  3.62E-03  0.84581
   1108.   9.025  1.01E-06  1.24E-04  0.00E+00  0.00E+00  0.00E+00  0.00E+00  1.01E-06  1.24E-04  3.62E-03  0.84551
   1110.   9.009  1.00E-06  1.24E-04  0.00E+00  0.00E+00  0.00E+00  0.00E+00  1.00E-06  1.24E-04  3.63E-03  0.84585
   1112.   8.993  1.00E-06  1.24E-04  0.00E+00  0.00E+00  0.00E+00  0.00E+00  1.00E-06  1.24E-04  3.63E-03  0.84216
   1114.   8.977  1.00E-06  1.24E-04  0.00E+00  0.00E+00  0.00E+00  0.00E+00  1.00E-06  1.24E-04  3.63E-03  0.84083
   1116.   8.961  9.89E-07  1.23E-04  0.00E+00  0.00E+00  0.00E+00  0.00E+00  9.89E-07  1.23E-04  3.63E-03  0.84253
   1118.   8.945  9.96E-07  1.24E-04  0.00E+00  0.00E+00  0.00E+00  0.00E+00  9.96E-07  1.24E-04  3.63E-03  0.83435
   1120.   8.929  9.80E-07  1.23E-04  0.00E+00  0.00E+00  0.00E+00  0.00E+00  9.80E-07  1.23E-04  3.64E-03  0.83976
   1122.   8.913  9.87E-07  1.24E-04  0.00E+00  0.00E+00  0.00E+00  0.00E+00  9.87E-07  1.24E-04  3.64E-03  0.83456
   1124.   8.897  9.79E-07  1.24E-04  0.00E+00  0.00E+00  0.00E+00  0.00E+00  9.79E-07  1.24E-04  3.64E-03  0.83308
   1126.   8.881  9.68E-07  1.23E-04  0.00E+00  0.00E+00  0.00E+00  0.00E+00  9.68E-07  1.23E-04  3.64E-03  0.83557
   1128.   8.865  9.58E-07  1.22E-04  0.00E+00  0.00E+00  0.00E+00  0.00E+00  9.58E-07  1.22E-04  3.64E-03  0.83928
   1130.   8.850  9.60E-07  1.23E-04  0.00E+00  0.00E+00  0.00E+00  0.00E+00  9.60E-07  1.23E-04  3.65E-03  0.83773
   1132.   8.834  9.49E-07  1.22E-04  0.00E+00  0.00E+00  0.00E+00  0.00E+00  9.49E-07  1.22E-04  3.65E-03  0.84217
   1134.   8.818  9.57E-07  1.23E-04  0.00E+00  0.00E+00  0.00E+00  0.00E+00  9.57E-07  1.23E-04  3.65E-03  0.83854
   1136.   8.803  9.61E-07  1.24E-04  0.00E+00  0.00E+00  0.00E+00  0.00E+00  9.61E-07  1.24E-04  3.65E-03  0.83634
   1138.   8.787  9.59E-07  1.24E-04  0.00E+00  0.00E+00  0.00E+00  0.00E+00  9.59E-07  1.24E-04  3.65E-03  0.83845
   1140.   8.772  9.59E-07  1.25E-04  0.00E+00  0.00E+00  0.00E+00  0.00E+00  9.59E-07  1.25E-04  3.66E-03  0.84119
   1142.   8.757  9.68E-07  1.26E-04  0.00E+00  0.00E+00  0.00E+00  0.00E+00  9.68E-07  1.26E-04  3.66E-03  0.83715
   1144.   8.741  9.78E-07  1.28E-04  0.00E+00  0.00E+00  0.00E+00  0.00E+00  9.78E-07  1.28E-04  3.66E-03  0.83273
   1146.   8.726  9.90E-07  1.30E-04  0.00E+00  0.00E+00  0.00E+00  0.00E+00  9.90E-07  1.30E-04  3.66E-03  0.82907
   1148.   8.711  1.00E-06  1.32E-04  0.00E+00  0.00E+00  0.00E+00  0.00E+00  1.00E-06  1.32E-04  3.66E-03  0.82288
   1150.   8.696  1.01E-06  1.34E-04  0.00E+00  0.00E+00  0.00E+00  0.00E+00  1.01E-06  1.34E-04  3.67E-03  0.82002
   1152.   8.681  9.92E-07  1.32E-04  0.00E+00  0.00E+00  0.00E+00  0.00E+00  9.92E-07  1.32E-04  3.67E-03  0.82243
   1154.   8.666  9.84E-07  1.31E-04  0.00E+00  0.00E+00  0.00E+00  0.00E+00  9.84E-07  1.31E-04  3.67E-03  0.82187
   1156.   8.651  9.62E-07  1.29E-04  0.00E+00  0.00E+00  0.00E+00  0.00E+00  9.62E-07  1.29E-04  3.67E-03  0.82281
   1158.   8.636  9.38E-07  1.26E-04  0.00E+00  0.00E+00  0.00E+00  0.00E+00  9.38E-07  1.26E-04  3.67E-03  0.82694
   1160.   8.621  9.26E-07  1.25E-04  0.00E+00  0.00E+00  0.00E+00  0.00E+00  9.26E-07  1.25E-04  3.67E-03  0.82735
   1162.   8.606  8.70E-07  1.17E-04  0.00E+00  0.00E+00  0.00E+00  0.00E+00  8.70E-07  1.17E-04  3.68E-03  0.84011
   1164.   8.591  8.09E-07  1.10E-04  0.00E+00  0.00E+00  0.00E+00  0.00E+00  8.09E-07  1.10E-04  3.68E-03  0.85425
   1166.   8.576  7.80E-07  1.06E-04  0.00E+00  0.00E+00  0.00E+00  0.00E+00  7.80E-07  1.06E-04  3.68E-03  0.86020
   1168.   8.562  7.26E-07  9.91E-05  0.00E+00  0.00E+00  0.00E+00  0.00E+00  7.26E-07  9.91E-05  3.68E-03  0.87419
   1170.   8.547  7.39E-07  1.01E-04  0.00E+00  0.00E+00  0.00E+00  0.00E+00  7.39E-07  1.01E-04  3.68E-03  0.86907
   1172.   8.532  7.68E-07  1.06E-04  0.00E+00  0.00E+00  0.00E+00  0.00E+00  7.68E-07  1.06E-04  3.68E-03  0.85572
   1174.   8.518  7.49E-07  1.03E-04  0.00E+00  0.00E+00  0.00E+00  0.00E+00  7.49E-07  1.03E-04  3.69E-03  0.85801
   1176.   8.503  7.67E-07  1.06E-04  0.00E+00  0.00E+00  0.00E+00  0.00E+00  7.67E-07  1.06E-04  3.69E-03  0.84979
   1178.   8.489  7.67E-07  1.06E-04  0.00E+00  0.00E+00  0.00E+00  0.00E+00  7.67E-07  1.06E-04  3.69E-03  0.84934
   1180.   8.475  7.30E-07  1.02E-04  0.00E+00  0.00E+00  0.00E+00  0.00E+00  7.30E-07  1.02E-04  3.69E-03  0.85810
   1182.   8.460  7.28E-07  1.02E-04  0.00E+00  0.00E+00  0.00E+00  0.00E+00  7.28E-07  1.02E-04  3.69E-03  0.85830
   1184.   8.446  7.31E-07  1.02E-04  0.00E+00  0.00E+00  0.00E+00  0.00E+00  7.31E-07  1.02E-04  3.69E-03  0.85335
   1186.   8.432  6.60E-07  9.28E-05  0.00E+00  0.00E+00  0.00E+00  0.00E+00  6.60E-07  9.28E-05  3.69E-03  0.87020
   1188.   8.418  6.37E-07  8.99E-05  0.00E+00  0.00E+00  0.00E+00  0.00E+00  6.37E-07  8.99E-05  3.70E-03  0.87580
   1190.   8.403  6.68E-07  9.45E-05  0.00E+00  0.00E+00  0.00E+00  0.00E+00  6.68E-07  9.45E-05  3.70E-03  0.86844
   1192.   8.389  6.47E-07  9.20E-05  0.00E+00  0.00E+00  0.00E+00  0.00E+00  6.47E-07  9.20E-05  3.70E-03  0.87283
   1194.   8.375  5.55E-07  7.92E-05  0.00E+00  0.00E+00  0.00E+00  0.00E+00  5.55E-07  7.92E-05  3.70E-03  0.89480
   1196.   8.361  5.38E-07  7.70E-05  0.00E+00  0.00E+00  0.00E+00  0.00E+00  5.38E-07  7.70E-05  3.70E-03  0.89822
   1198.   8.347  5.15E-07  7.39E-05  0.00E+00  0.00E+00  0.00E+00  0.00E+00  5.15E-07  7.39E-05  3.70E-03  0.89998
1                                             RADIANCE(WATTS/CM2-STER-XXX)
0  FREQ   WAVLEN    PATH THERMAL      SURFACE EMISSION    SURFACE REFLECTED     TOTAL RADIANCE   INTEGRAL    TOTAL
  (CM-1) (MICRN)    (CM-1)   (MICRN)    (CM-1)   (MICRN)    (CM-1)   (MICRN)    (CM-1)   (MICRN)    (CM-1)   TRANS

   1200.   8.333  5.06E-07  7.28E-05  0.00E+00  0.00E+00  0.00E+00  0.00E+00  5.06E-07  7.28E-05  3.70E-03  0.90386
   1202.   8.319  5.47E-07  7.90E-05  0.00E+00  0.00E+00  0.00E+00  0.00E+00  5.47E-07  7.90E-05  3.70E-03  0.89270
   1204.   8.306  4.67E-07  6.77E-05  0.00E+00  0.00E+00  0.00E+00  0.00E+00  4.67E-07  6.77E-05  3.70E-03  0.91028
   1206.   8.292  4.03E-07  5.87E-05  0.00E+00  0.00E+00  0.00E+00  0.00E+00  4.03E-07  5.87E-05  3.71E-03  0.92513
   1208.   8.278  4.10E-07  5.98E-05  0.00E+00  0.00E+00  0.00E+00  0.00E+00  4.10E-07  5.98E-05  3.71E-03  0.92259
   1210.   8.264  5.50E-07  8.05E-05  0.00E+00  0.00E+00  0.00E+00  0.00E+00  5.50E-07  8.05E-05  3.71E-03  0.88608
   1212.   8.251  6.06E-07  8.90E-05  0.00E+00  0.00E+00  0.00E+00  0.00E+00  6.06E-07  8.90E-05  3.71E-03  0.86797
   1214.   8.237  3.32E-07  4.89E-05  0.00E+00  0.00E+00  0.00E+00  0.00E+00  3.32E-07  4.89E-05  3.71E-03  0.93780
   1216.   8.224  5.25E-07  7.76E-05  0.00E+00  0.00E+00  0.00E+00  0.00E+00  5.25E-07  7.76E-05  3.71E-03  0.88684
   1218.   8.210  5.01E-07  7.43E-05  0.00E+00  0.00E+00  0.00E+00  0.00E+00  5.01E-07  7.43E-05  3.71E-03  0.89126
   1220.   8.197  7.41E-07  1.10E-04  0.00E+00  0.00E+00  0.00E+00  0.00E+00  7.41E-07  1.10E-04  3.71E-03  0.82937
   1222.   8.183  7.21E-07  1.08E-04  0.00E+00  0.00E+00  0.00E+00  0.00E+00  7.21E-07  1.08E-04  3.71E-03  0.83344
   1224.   8.170  5.80E-07  8.69E-05  0.00E+00  0.00E+00  0.00E+00  0.00E+00  5.80E-07  8.69E-05  3.72E-03  0.86806
   1226.   8.157  5.14E-07  7.72E-05  0.00E+00  0.00E+00  0.00E+00  0.00E+00  5.14E-07  7.72E-05  3.72E-03  0.88283
   1228.   8.143  5.68E-07  8.57E-05  0.00E+00  0.00E+00  0.00E+00  0.00E+00  5.68E-07  8.57E-05  3.72E-03  0.87068
   1230.   8.130  1.04E-06  1.57E-04  0.00E+00  0.00E+00  0.00E+00  0.00E+00  1.04E-06  1.57E-04  3.72E-03  0.75008
   1232.   8.117  4.43E-07  6.73E-05  0.00E+00  0.00E+00  0.00E+00  0.00E+00  4.43E-07  6.73E-05  3.72E-03  0.90120
   1234.   8.104  4.60E-07  7.00E-05  0.00E+00  0.00E+00  0.00E+00  0.00E+00  4.60E-07  7.00E-05  3.72E-03  0.89692
   1236.   8.091  1.31E-06  1.99E-04  0.00E+00  0.00E+00  0.00E+00  0.00E+00  1.31E-06  1.99E-04  3.72E-03  0.68478
   1238.   8.078  1.08E-06  1.65E-04  0.00E+00  0.00E+00  0.00E+00  0.00E+00  1.08E-06  1.65E-04  3.73E-03  0.73504
   1240.   8.065  8.60E-07  1.32E-04  0.00E+00  0.00E+00  0.00E+00  0.00E+00  8.60E-07  1.32E-04  3.73E-03  0.78873
   1242.   8.052  1.35E-06  2.09E-04  0.00E+00  0.00E+00  0.00E+00  0.00E+00  1.35E-06  2.09E-04  3.73E-03  0.66284
   1244.   8.039  1.06E-06  1.64E-04  0.00E+00  0.00E+00  0.00E+00  0.00E+00  1.06E-06  1.64E-04  3.73E-03  0.73515
   1246.   8.026  1.61E-06  2.49E-04  0.00E+00  0.00E+00  0.00E+00  0.00E+00  1.61E-06  2.49E-04  3.74E-03  0.60356
   1248.   8.013  1.81E-06  2.81E-04  0.00E+00  0.00E+00  0.00E+00  0.00E+00  1.81E-06  2.81E-04  3.74E-03  0.56598
   1250.   8.000  1.32E-06  2.06E-04  0.00E+00  0.00E+00  0.00E+00  0.00E+00  1.32E-06  2.06E-04  3.74E-03  0.66327
   1252.   7.987  1.14E-06  1.78E-04  0.00E+00  0.00E+00  0.00E+00  0.00E+00  1.14E-06  1.78E-04  3.74E-03  0.70342
   1254.   7.974  2.41E-06  3.79E-04  0.00E+00  0.00E+00  0.00E+00  0.00E+00  2.41E-06  3.79E-04  3.75E-03  0.39905
   1256.   7.962  1.64E-06  2.59E-04  0.00E+00  0.00E+00  0.00E+00  0.00E+00  1.64E-06  2.59E-04  3.75E-03  0.56861
   1258.   7.949  1.55E-06  2.45E-04  0.00E+00  0.00E+00  0.00E+00  0.00E+00  1.55E-06  2.45E-04  3.76E-03  0.58821
   1260.   7.937  2.60E-06  4.12E-04  0.00E+00  0.00E+00  0.00E+00  0.00E+00  2.60E-06  4.12E-04  3.76E-03  0.35710
   1262.   7.924  2.77E-06  4.42E-04  0.00E+00  0.00E+00  0.00E+00  0.00E+00  2.77E-06  4.42E-04  3.77E-03  0.31010
   1264.   7.911  2.28E-06  3.65E-04  0.00E+00  0.00E+00  0.00E+00  0.00E+00  2.28E-06  3.65E-04  3.77E-03  0.41157
   1266.   7.899  2.60E-06  4.17E-04  0.00E+00  0.00E+00  0.00E+00  0.00E+00  2.60E-06  4.17E-04  3.78E-03  0.33698
   1268.   7.886  3.13E-06  5.04E-04  0.00E+00  0.00E+00  0.00E+00  0.00E+00  3.13E-06  5.04E-04  3.78E-03  0.23305
   1270.   7.874  2.73E-06  4.41E-04  0.00E+00  0.00E+00  0.00E+00  0.00E+00  2.73E-06  4.41E-04  3.79E-03  0.30021
   1272.   7.862  2.76E-06  4.46E-04  0.00E+00  0.00E+00  0.00E+00  0.00E+00  2.76E-06  4.46E-04  3.79E-03  0.28832
   1274.   7.849  2.44E-06  3.96E-04  0.00E+00  0.00E+00  0.00E+00  0.00E+00  2.44E-06  3.96E-04  3.80E-03  0.35630
   1276.   7.837  2.82E-06  4.59E-04  0.00E+00  0.00E+00  0.00E+00  0.00E+00  2.82E-06  4.59E-04  3.80E-03  0.27460
   1278.   7.825  2.25E-06  3.67E-04  0.00E+00  0.00E+00  0.00E+00  0.00E+00  2.25E-06  3.67E-04  3.81E-03  0.39073
   1280.   7.813  1.79E-06  2.94E-04  0.00E+00  0.00E+00  0.00E+00  0.00E+00  1.79E-06  2.94E-04  3.81E-03  0.47618
   1282.   7.800  2.69E-06  4.42E-04  0.00E+00  0.00E+00  0.00E+00  0.00E+00  2.69E-06  4.42E-04  3.82E-03  0.28602
   1284.   7.788  1.62E-06  2.67E-04  0.00E+00  0.00E+00  0.00E+00  0.00E+00  1.62E-06  2.67E-04  3.82E-03  0.56391
   1286.   7.776  1.18E-06  1.96E-04  0.00E+00  0.00E+00  0.00E+00  0.00E+00  1.18E-06  1.96E-04  3.82E-03  0.64455
   1288.   7.764  2.76E-06  4.58E-04  0.00E+00  0.00E+00  0.00E+00  0.00E+00  2.76E-06  4.58E-04  3.83E-03  0.25566
   1290.   7.752  2.29E-06  3.81E-04  0.00E+00  0.00E+00  0.00E+00  0.00E+00  2.29E-06  3.81E-04  3.83E-03  0.33976
   1292.   7.740  2.24E-06  3.75E-04  0.00E+00  0.00E+00  0.00E+00  0.00E+00  2.24E-06  3.75E-04  3.84E-03  0.36296
   1294.   7.728  3.00E-06  5.03E-04  0.00E+00  0.00E+00  0.00E+00  0.00E+00  3.00E-06  5.03E-04  3.84E-03  0.18999
   1296.   7.716  2.89E-06  4.86E-04  0.00E+00  0.00E+00  0.00E+00  0.00E+00  2.89E-06  4.86E-04  3.85E-03  0.21470
   1298.   7.704  3.21E-06  5.41E-04  0.00E+00  0.00E+00  0.00E+00  0.00E+00  3.21E-06  5.41E-04  3.86E-03  0.15907
1                                             RADIANCE(WATTS/CM2-STER-XXX)
0  FREQ   WAVLEN    PATH THERMAL      SURFACE EMISSION    SURFACE REFLECTED     TOTAL RADIANCE   INTEGRAL    TOTAL
  (CM-1) (MICRN)    (CM-1)   (MICRN)    (CM-1)   (MICRN)    (CM-1)   (MICRN)    (CM-1)   (MICRN)    (CM-1)   TRANS

   1300.   7.692  3.32E-06  5.61E-04  0.00E+00  0.00E+00  0.00E+00  0.00E+00  3.32E-06  5.61E-04  3.86E-03  0.14380
   1302.   7.680  3.79E-06  6.42E-04  0.00E+00  0.00E+00  0.00E+00  0.00E+00  3.79E-06  6.42E-04  3.87E-03  0.07579
   1304.   7.669  4.25E-06  7.22E-04  0.00E+00  0.00E+00  0.00E+00  0.00E+00  4.25E-06  7.22E-04  3.88E-03  0.02336
   1306.   7.657  4.06E-06  6.92E-04  0.00E+00  0.00E+00  0.00E+00  0.00E+00  4.06E-06  6.92E-04  3.89E-03  0.07489
   1308.   7.645  2.05E-06  3.50E-04  0.00E+00  0.00E+00  0.00E+00  0.00E+00  2.05E-06  3.50E-04  3.89E-03  0.39997
   1310.   7.634  1.65E-06  2.83E-04  0.00E+00  0.00E+00  0.00E+00  0.00E+00  1.65E-06  2.83E-04  3.89E-03  0.51111
   1312.   7.622  1.57E-06  2.70E-04  0.00E+00  0.00E+00  0.00E+00  0.00E+00  1.57E-06  2.70E-04  3.90E-03  0.52175
   1314.   7.610  1.08E-06  1.87E-04  0.00E+00  0.00E+00  0.00E+00  0.00E+00  1.08E-06  1.87E-04  3.90E-03  0.64438
   1316.   7.599  1.22E-06  2.12E-04  0.00E+00  0.00E+00  0.00E+00  0.00E+00  1.22E-06  2.12E-04  3.90E-03  0.61774
   1318.   7.587  1.06E-06  1.84E-04  0.00E+00  0.00E+00  0.00E+00  0.00E+00  1.06E-06  1.84E-04  3.90E-03  0.65070
   1320.   7.576  7.05E-07  1.23E-04  0.00E+00  0.00E+00  0.00E+00  0.00E+00  7.05E-07  1.23E-04  3.91E-03  0.74281
   1322.   7.564  1.53E-06  2.68E-04  0.00E+00  0.00E+00  0.00E+00  0.00E+00  1.53E-06  2.68E-04  3.91E-03  0.55919
   1324.   7.553  6.53E-07  1.15E-04  0.00E+00  0.00E+00  0.00E+00  0.00E+00  6.53E-07  1.15E-04  3.91E-03  0.79080
   1326.   7.541  1.22E-06  2.14E-04  0.00E+00  0.00E+00  0.00E+00  0.00E+00  1.22E-06  2.14E-04  3.91E-03  0.66001
   1328.   7.530  1.50E-06  2.65E-04  0.00E+00  0.00E+00  0.00E+00  0.00E+00  1.50E-06  2.65E-04  3.92E-03  0.56734
   1330.   7.519  4.86E-07  8.59E-05  0.00E+00  0.00E+00  0.00E+00  0.00E+00  4.86E-07  8.59E-05  3.92E-03  0.85216
   1332.   7.508  2.17E-06  3.85E-04  0.00E+00  0.00E+00  0.00E+00  0.00E+00  2.17E-06  3.85E-04  3.92E-03  0.39019
   1334.   7.496  1.18E-06  2.10E-04  0.00E+00  0.00E+00  0.00E+00  0.00E+00  1.18E-06  2.10E-04  3.92E-03  0.65592
   1336.   7.485  1.04E-06  1.86E-04  0.00E+00  0.00E+00  0.00E+00  0.00E+00  1.04E-06  1.86E-04  3.93E-03  0.68260
   1338.   7.474  2.12E-06  3.80E-04  0.00E+00  0.00E+00  0.00E+00  0.00E+00  2.12E-06  3.80E-04  3.93E-03  0.35161
   1340.   7.463  7.04E-07  1.26E-04  0.00E+00  0.00E+00  0.00E+00  0.00E+00  7.04E-07  1.26E-04  3.93E-03  0.66484
   1342.   7.452  2.52E-06  4.54E-04  0.00E+00  0.00E+00  0.00E+00  0.00E+00  2.52E-06  4.54E-04  3.94E-03  0.29180
   1344.   7.440  1.17E-06  2.11E-04  0.00E+00  0.00E+00  0.00E+00  0.00E+00  1.17E-06  2.11E-04  3.94E-03  0.65649
   1346.   7.429  1.61E-06  2.92E-04  0.00E+00  0.00E+00  0.00E+00  0.00E+00  1.61E-06  2.92E-04  3.94E-03  0.51533
   1348.   7.418  1.99E-06  3.61E-04  0.00E+00  0.00E+00  0.00E+00  0.00E+00  1.99E-06  3.61E-04  3.95E-03  0.39039
   1350.   7.407  9.57E-07  1.74E-04  0.00E+00  0.00E+00  0.00E+00  0.00E+00  9.57E-07  1.74E-04  3.95E-03  0.68860
   1352.   7.396  1.86E-06  3.39E-04  0.00E+00  0.00E+00  0.00E+00  0.00E+00  1.86E-06  3.39E-04  3.95E-03  0.41964
   1354.   7.386  1.33E-06  2.44E-04  0.00E+00  0.00E+00  0.00E+00  0.00E+00  1.33E-06  2.44E-04  3.95E-03  0.58167
   1356.   7.375  1.78E-06  3.28E-04  0.00E+00  0.00E+00  0.00E+00  0.00E+00  1.78E-06  3.28E-04  3.96E-03  0.43113
   1358.   7.364  1.16E-06  2.13E-04  0.00E+00  0.00E+00  0.00E+00  0.00E+00  1.16E-06  2.13E-04  3.96E-03  0.61871
   1360.   7.353  1.28E-06  2.37E-04  0.00E+00  0.00E+00  0.00E+00  0.00E+00  1.28E-06  2.37E-04  3.96E-03  0.56822
   1362.   7.342  1.05E-06  1.94E-04  0.00E+00  0.00E+00  0.00E+00  0.00E+00  1.05E-06  1.94E-04  3.96E-03  0.60907
   1364.   7.331  1.11E-06  2.06E-04  0.00E+00  0.00E+00  0.00E+00  0.00E+00  1.11E-06  2.06E-04  3.97E-03  0.58797
   1366.   7.321  9.23E-07  1.72E-04  0.00E+00  0.00E+00  0.00E+00  0.00E+00  9.23E-07  1.72E-04  3.97E-03  0.69667
   1368.   7.310  9.39E-07  1.76E-04  0.00E+00  0.00E+00  0.00E+00  0.00E+00  9.39E-07  1.76E-04  3.97E-03  0.66279
   1370.   7.299  7.65E-07  1.44E-04  0.00E+00  0.00E+00  0.00E+00  0.00E+00  7.65E-07  1.44E-04  3.97E-03  0.71982
   1372.   7.289  6.27E-07  1.18E-04  0.00E+00  0.00E+00  0.00E+00  0.00E+00  6.27E-07  1.18E-04  3.97E-03  0.78556
   1374.   7.278  8.56E-07  1.62E-04  0.00E+00  0.00E+00  0.00E+00  0.00E+00  8.56E-07  1.62E-04  3.97E-03  0.58361
   1376.   7.267  5.45E-07  1.03E-04  0.00E+00  0.00E+00  0.00E+00  0.00E+00  5.45E-07  1.03E-04  3.98E-03  0.76952
   1378.   7.257  5.74E-07  1.09E-04  0.00E+00  0.00E+00  0.00E+00  0.00E+00  5.74E-07  1.09E-04  3.98E-03  0.78629
   1380.   7.246  4.75E-07  9.04E-05  0.00E+00  0.00E+00  0.00E+00  0.00E+00  4.75E-07  9.04E-05  3.98E-03  0.82798
   1382.   7.236  4.42E-07  8.44E-05  0.00E+00  0.00E+00  0.00E+00  0.00E+00  4.42E-07  8.44E-05  3.98E-03  0.85756
   1384.   7.225  4.14E-07  7.93E-05  0.00E+00  0.00E+00  0.00E+00  0.00E+00  4.14E-07  7.93E-05  3.98E-03  0.86709
   1386.   7.215  4.05E-07  7.77E-05  0.00E+00  0.00E+00  0.00E+00  0.00E+00  4.05E-07  7.77E-05  3.98E-03  0.82949
   1388.   7.205  4.75E-07  9.14E-05  0.00E+00  0.00E+00  0.00E+00  0.00E+00  4.75E-07  9.14E-05  3.98E-03  0.69879
   1390.   7.194  3.43E-07  6.62E-05  0.00E+00  0.00E+00  0.00E+00  0.00E+00  3.43E-07  6.62E-05  3.98E-03  0.88620
   1392.   7.184  3.33E-07  6.45E-05  0.00E+00  0.00E+00  0.00E+00  0.00E+00  3.33E-07  6.45E-05  3.98E-03  0.88985
   1394.   7.174  4.57E-07  8.89E-05  0.00E+00  0.00E+00  0.00E+00  0.00E+00  4.57E-07  8.89E-05  3.98E-03  0.66865
   1396.   7.163  3.86E-07  7.53E-05  0.00E+00  0.00E+00  0.00E+00  0.00E+00  3.86E-07  7.53E-05  3.98E-03  0.77340
   1398.   7.153  3.99E-07  7.79E-05  0.00E+00  0.00E+00  0.00E+00  0.00E+00  3.99E-07  7.79E-05  3.99E-03  0.75374
1                                             RADIANCE(WATTS/CM2-STER-XXX)
0  FREQ   WAVLEN    PATH THERMAL      SURFACE EMISSION    SURFACE REFLECTED     TOTAL RADIANCE   INTEGRAL    TOTAL
  (CM-1) (MICRN)    (CM-1)   (MICRN)    (CM-1)   (MICRN)    (CM-1)   (MICRN)    (CM-1)   (MICRN)    (CM-1)   TRANS

   1400.   7.143  3.63E-07  7.12E-05  0.00E+00  0.00E+00  0.00E+00  0.00E+00  3.63E-07  7.12E-05  3.99E-03  0.79100
   1402.   7.133  2.98E-07  5.86E-05  0.00E+00  0.00E+00  0.00E+00  0.00E+00  2.98E-07  5.86E-05  3.99E-03  0.90562
   1404.   7.123  3.46E-07  6.83E-05  0.00E+00  0.00E+00  0.00E+00  0.00E+00  3.46E-07  6.83E-05  3.99E-03  0.82437
   1406.   7.112  3.38E-07  6.69E-05  0.00E+00  0.00E+00  0.00E+00  0.00E+00  3.38E-07  6.69E-05  3.99E-03  0.83729
   1408.   7.102  2.95E-07  5.84E-05  0.00E+00  0.00E+00  0.00E+00  0.00E+00  2.95E-07  5.84E-05  3.99E-03  0.90747
   1410.   7.092  3.05E-07  6.07E-05  0.00E+00  0.00E+00  0.00E+00  0.00E+00  3.05E-07  6.07E-05  3.99E-03  0.88670
   1412.   7.082  3.27E-07  6.51E-05  0.00E+00  0.00E+00  0.00E+00  0.00E+00  3.27E-07  6.51E-05  3.99E-03  0.85467
   1414.   7.072  2.94E-07  5.88E-05  0.00E+00  0.00E+00  0.00E+00  0.00E+00  2.94E-07  5.88E-05  3.99E-03  0.90093
   1416.   7.062  3.32E-07  6.66E-05  0.00E+00  0.00E+00  0.00E+00  0.00E+00  3.32E-07  6.66E-05  3.99E-03  0.81723
   1418.   7.052  4.06E-07  8.16E-05  0.00E+00  0.00E+00  0.00E+00  0.00E+00  4.06E-07  8.16E-05  3.99E-03  0.69918
   1420.   7.042  4.74E-07  9.57E-05  0.00E+00  0.00E+00  0.00E+00  0.00E+00  4.74E-07  9.57E-05  3.99E-03  0.53742
   1422.   7.032  3.01E-07  6.08E-05  0.00E+00  0.00E+00  0.00E+00  0.00E+00  3.01E-07  6.08E-05  3.99E-03  0.88224
   1424.   7.022  3.86E-07  7.83E-05  0.00E+00  0.00E+00  0.00E+00  0.00E+00  3.86E-07  7.83E-05  3.99E-03  0.71417
   1426.   7.013  3.44E-07  6.99E-05  0.00E+00  0.00E+00  0.00E+00  0.00E+00  3.44E-07  6.99E-05  3.99E-03  0.87033
   1428.   7.003  3.16E-07  6.44E-05  0.00E+00  0.00E+00  0.00E+00  0.00E+00  3.16E-07  6.44E-05  4.00E-03  0.86663
   1430.   6.993  3.91E-07  8.00E-05  0.00E+00  0.00E+00  0.00E+00  0.00E+00  3.91E-07  8.00E-05  4.00E-03  0.71467
   1432.   6.983  3.55E-07  7.29E-05  0.00E+00  0.00E+00  0.00E+00  0.00E+00  3.55E-07  7.29E-05  4.00E-03  0.83686
   1434.   6.974  3.80E-07  7.81E-05  0.00E+00  0.00E+00  0.00E+00  0.00E+00  3.80E-07  7.81E-05  4.00E-03  0.81974
   1436.   6.964  5.04E-07  1.04E-04  0.00E+00  0.00E+00  0.00E+00  0.00E+00  5.04E-07  1.04E-04  4.00E-03  0.53472
   1438.   6.954  4.30E-07  8.90E-05  0.00E+00  0.00E+00  0.00E+00  0.00E+00  4.30E-07  8.90E-05  4.00E-03  0.69560
   1440.   6.944  3.82E-07  7.93E-05  0.00E+00  0.00E+00  0.00E+00  0.00E+00  3.82E-07  7.93E-05  4.00E-03  0.84750
   1442.   6.935  3.87E-07  8.05E-05  0.00E+00  0.00E+00  0.00E+00  0.00E+00  3.87E-07  8.05E-05  4.00E-03  0.84723
   1444.   6.925  3.75E-07  7.82E-05  0.00E+00  0.00E+00  0.00E+00  0.00E+00  3.75E-07  7.82E-05  4.00E-03  0.85270
   1446.   6.916  3.83E-07  8.01E-05  0.00E+00  0.00E+00  0.00E+00  0.00E+00  3.83E-07  8.01E-05  4.00E-03  0.81693
   1448.   6.906  4.85E-07  1.02E-04  0.00E+00  0.00E+00  0.00E+00  0.00E+00  4.85E-07  1.02E-04  4.00E-03  0.65981
   1450.   6.897  4.15E-07  8.72E-05  0.00E+00  0.00E+00  0.00E+00  0.00E+00  4.15E-07  8.72E-05  4.00E-03  0.82325
   1452.   6.887  4.18E-07  8.82E-05  0.00E+00  0.00E+00  0.00E+00  0.00E+00  4.18E-07  8.82E-05  4.01E-03  0.76661
   1454.   6.878  4.27E-07  9.03E-05  0.00E+00  0.00E+00  0.00E+00  0.00E+00  4.27E-07  9.03E-05  4.01E-03  0.75578
   1456.   6.868  5.69E-07  1.21E-04  0.00E+00  0.00E+00  0.00E+00  0.00E+00  5.69E-07  1.21E-04  4.01E-03  0.45535
   1458.   6.859  6.29E-07  1.34E-04  0.00E+00  0.00E+00  0.00E+00  0.00E+00  6.29E-07  1.34E-04  4.01E-03  0.33244
   1460.   6.849  4.51E-07  9.62E-05  0.00E+00  0.00E+00  0.00E+00  0.00E+00  4.51E-07  9.62E-05  4.01E-03  0.71297
   1462.   6.840  4.14E-07  8.85E-05  0.00E+00  0.00E+00  0.00E+00  0.00E+00  4.14E-07  8.85E-05  4.01E-03  0.81244
   1464.   6.831  4.96E-07  1.06E-04  0.00E+00  0.00E+00  0.00E+00  0.00E+00  4.96E-07  1.06E-04  4.01E-03  0.61635
   1466.   6.821  5.16E-07  1.11E-04  0.00E+00  0.00E+00  0.00E+00  0.00E+00  5.16E-07  1.11E-04  4.01E-03  0.64687
   1468.   6.812  4.22E-07  9.10E-05  0.00E+00  0.00E+00  0.00E+00  0.00E+00  4.22E-07  9.10E-05  4.01E-03  0.80207
   1470.   6.803  4.37E-07  9.45E-05  0.00E+00  0.00E+00  0.00E+00  0.00E+00  4.37E-07  9.45E-05  4.01E-03  0.76836
   1472.   6.793  5.65E-07  1.23E-04  0.00E+00  0.00E+00  0.00E+00  0.00E+00  5.65E-07  1.23E-04  4.01E-03  0.47303
   1474.   6.784  5.64E-07  1.23E-04  0.00E+00  0.00E+00  0.00E+00  0.00E+00  5.64E-07  1.23E-04  4.02E-03  0.50212
   1476.   6.775  5.36E-07  1.17E-04  0.00E+00  0.00E+00  0.00E+00  0.00E+00  5.36E-07  1.17E-04  4.02E-03  0.57171
   1478.   6.766  4.42E-07  9.66E-05  0.00E+00  0.00E+00  0.00E+00  0.00E+00  4.42E-07  9.66E-05  4.02E-03  0.78719
   1480.   6.757  4.56E-07  9.99E-05  0.00E+00  0.00E+00  0.00E+00  0.00E+00  4.56E-07  9.99E-05  4.02E-03  0.75564
   1482.   6.748  4.63E-07  1.02E-04  0.00E+00  0.00E+00  0.00E+00  0.00E+00  4.63E-07  1.02E-04  4.02E-03  0.74153
   1484.   6.739  4.54E-07  1.00E-04  0.00E+00  0.00E+00  0.00E+00  0.00E+00  4.54E-07  1.00E-04  4.02E-03  0.77860
   1486.   6.729  4.86E-07  1.07E-04  0.00E+00  0.00E+00  0.00E+00  0.00E+00  4.86E-07  1.07E-04  4.02E-03  0.65564
   1488.   6.720  5.06E-07  1.12E-04  0.00E+00  0.00E+00  0.00E+00  0.00E+00  5.06E-07  1.12E-04  4.02E-03  0.59101
   1490.   6.711  5.50E-07  1.22E-04  0.00E+00  0.00E+00  0.00E+00  0.00E+00  5.50E-07  1.22E-04  4.02E-03  0.46721
   1492.   6.702  4.82E-07  1.07E-04  0.00E+00  0.00E+00  0.00E+00  0.00E+00  4.82E-07  1.07E-04  4.02E-03  0.67211
   1494.   6.693  4.52E-07  1.01E-04  0.00E+00  0.00E+00  0.00E+00  0.00E+00  4.52E-07  1.01E-04  4.03E-03  0.75645
   1496.   6.684  5.57E-07  1.25E-04  0.00E+00  0.00E+00  0.00E+00  0.00E+00  5.57E-07  1.25E-04  4.03E-03  0.47167
   1498.   6.676  5.31E-07  1.19E-04  0.00E+00  0.00E+00  0.00E+00  0.00E+00  5.31E-07  1.19E-04  4.03E-03  0.53702
1                                             RADIANCE(WATTS/CM2-STER-XXX)
0  FREQ   WAVLEN    PATH THERMAL      SURFACE EMISSION    SURFACE REFLECTED     TOTAL RADIANCE   INTEGRAL    TOTAL
  (CM-1) (MICRN)    (CM-1)   (MICRN)    (CM-1)   (MICRN)    (CM-1)   (MICRN)    (CM-1)   (MICRN)    (CM-1)   TRANS

   1500.   6.667  5.13E-07  1.15E-04  0.00E+00  0.00E+00  0.00E+00  0.00E+00  5.13E-07  1.15E-04  4.03E-03  0.59966
0INTEGRATED ABSORPTION FROM  100 TO 1500 CM-1 =    505.84 CM-1
 AVERAGE TRANSMITTANCE =0.6387

0INTEGRATED RADIANCE =  4.028E-03 WATTS CM-2 STER-1
 MINIMUM RADIANCE    =  2.941E-07 WATTS CM-2 STER-1 (CM-1)-1 AT     1414.0 CM-1
 MAXIMUM RADIANCE    =  1.501E-05 WATTS CM-2 STER-1 (CM-1)-1 AT      648.0 CM-1
 BOUNDARY TEMPERATURE =       0.00 K
 BOUNDARY EMISSIVITY =       0.980
0 CARD 5 *****    0
