*****  MODTRAN3 Version 1.3  12/1/95  *****
0 CARD 1  *****T   1    3    1    0    0    0    0    0    0    0    0    0   -1   0.000  -1.00
0 CARD 2  *****    2    0    0    0    0    0     0.000     0.000     0.000     0.000     0.000
0 CARD 3  *****    20.000     0.000   180.000     0.000     0.000     0.000    0
0 CARD 4  *****       100      1500         2         2
0 PROGRAM WILL COMPUTE RADIANCE                
0 ATMOSPHERIC MODEL
          TEMPERATURE =    1     TROPICAL MODEL      
          WATER VAPOR =    1     TROPICAL MODEL      
          OZONE       =    1     TROPICAL MODEL      
                      M4 =     1 M5 =     1 M6 =     1 MDEF =     1
0 AEROSOL MODEL
          REGIME                  AEROSOL TYPE             PROFILE                  SEASON

          BOUNDARY LAYER (0-2 KM) RURAL                      5.0 KM VIS AT SEA LEVEL
          TROPOSPHERE  (2-10KM)   TROPOSPHERIC             TROPOSPHERIC             SPRING-SUMMER       
          STRATOSPHERE (10-30KM)  BACKGROUND STRATO        BACKGROUND STRATO        SPRING-SUMMER       
          UPPER ATMOS (30-100KM)  METEORIC DUST            NORMAL              
0 SLANT PATH TO SPACE
          H1    =     20.000 KM
          HMIN  =      0.000 KM
          ANGLE =    180.000 DEG
0 FREQUENCY RANGE
             IV1 =       100 CM-1  (    100.00 MICROMETERS)
             IV2 =      1500 CM-1  (      6.67 MICROMETERS)
             IDV =         2 CM-1
           IFWHM =         2 CM-1
1
  ATMOSPHERIC PROFILES

   I     Z       P       T        N2       CNTMSLF MOL SCAT     N-1     O3 (UV)  O2 (UV)
        (KM)    (MB)    (K)            (MOL/CM2 KM)   (-)       (-)  (ATM CM/KM) (ATM CM/KM)

   1     0.00 1013.000  299.7  7.622E-01 1.623E+21 9.112E-01 2.609E-04 2.612E-03 3.342E+04
   2     1.00  904.000  293.7  6.321E-01 7.602E+20 8.298E-01 2.379E-04 2.612E-03 2.927E+04
   3     2.00  805.000  287.7  5.223E-01 3.892E+20 7.543E-01 2.164E-04 2.519E-03 2.562E+04
   4     3.00  715.000  283.7  4.238E-01 9.924E+19 6.794E-01 1.951E-04 2.379E-03 2.219E+04
   5     4.00  633.000  277.0  3.484E-01 2.176E+19 6.160E-01 1.770E-04 2.192E-03 1.945E+04
   6     5.00  559.000  270.3  2.853E-01 1.012E+19 5.575E-01 1.603E-04 2.099E-03 1.703E+04
   7     6.00  492.000  263.6  2.324E-01 3.249E+18 5.032E-01 1.447E-04 2.006E-03 1.490E+04
   8     7.00  432.000  257.0  1.885E-01 9.917E+17 4.531E-01 1.303E-04 1.912E-03 1.302E+04
   9     8.00  378.000  250.3  1.522E-01 2.810E+17 4.071E-01 1.171E-04 1.819E-03 1.138E+04
  10     9.00  329.000  243.6  1.217E-01 6.471E+16 3.641E-01 1.047E-04 1.819E-03 9.902E+03
  11    10.00  286.000  237.0  9.716E-02 1.125E+16 3.253E-01 9.355E-05 1.819E-03 8.629E+03
  12    11.00  247.000  230.1  7.688E-02 1.299E+15 2.894E-01 8.322E-05 1.912E-03 7.496E+03
  13    12.00  213.000  223.6  6.054E-02 1.618E+14 2.568E-01 7.385E-05 2.006E-03 6.507E+03
  14    13.00  182.000  217.0  4.693E-02 1.456E+13 2.261E-01 6.502E-05 2.099E-03 5.608E+03
  15    14.00  156.000  210.3  3.671E-02 4.497E+12 2.000E-01 5.751E-05 2.098E-03 4.870E+03
  16    15.00  132.000  203.7  2.802E-02 1.419E+12 1.747E-01 5.024E-05 2.193E-03 4.178E+03
  17    16.00  111.000  197.0  2.118E-02 6.036E+11 1.519E-01 4.368E-05 2.192E-03 3.572E+03
  18    17.00   93.700  194.8  1.544E-02 4.110E+11 1.297E-01 3.729E-05 3.240E-03 3.000E+03
  19    18.00   78.900  198.8  1.051E-02 2.516E+11 1.070E-01 3.077E-05 5.346E-03 2.433E+03
  20    19.00   66.600  202.7  7.202E-03 1.542E+11 8.857E-02 2.547E-05 8.409E-03 1.986E+03
  21    20.00   56.500  206.7  4.985E-03 1.067E+11 7.369E-02 2.119E-05 1.031E-02 1.633E+03
  22    21.00   48.000  210.7  3.463E-03 7.699E+10 6.141E-02 1.766E-05 1.105E-02 1.348E+03
  23    22.00   40.900  214.6  2.423E-03 6.016E+10 5.138E-02 1.478E-05 1.232E-02 1.119E+03
  24    23.00   35.000  217.0  1.736E-03 4.622E+10 4.348E-02 1.250E-05 1.477E-02 9.409E+02
  25    24.00   30.000  219.2  1.250E-03 4.052E+10 3.689E-02 1.061E-05 1.585E-02 7.942E+02
  26    25.00   25.700  221.4  8.990E-04 3.007E+10 3.129E-02 8.999E-06 1.689E-02 6.705E+02
  27    30.00   12.200  232.3  1.840E-04 9.323E+09 1.416E-02 4.072E-06 1.316E-02 2.992E+02
  28    35.00    6.000  243.1  4.064E-05 2.723E+09 6.654E-03 1.913E-06 6.450E-03 1.397E+02
  29    40.00    3.050  254.0  9.620E-06 8.236E+08 3.237E-03 9.309E-07 2.426E-03 6.779E+01
  30    45.00    1.590  264.8  2.405E-06 2.475E+08 1.619E-03 4.655E-07 7.279E-04 3.385E+01
  31    50.00    0.854  270.2  6.665E-07 7.597E+07 8.520E-04 2.450E-07 2.384E-04 1.781E+01
  32    70.00    0.058  218.9  4.684E-09 3.003E+05 7.143E-05 2.054E-08 2.141E-06 1.492E+00
  33   100.00    0.000  190.7  1.532E-13 7.763E-02 4.085E-07 1.175E-10 1.633E-08 6.532E-03
1
  ATMOSPHERIC PROFILES

   I     Z       P       T      CNTMFRN     HNO3    AEROSOL 1 AEROSOL 2 AEROSOL 3 AEROSOL 4 AER1*RH   CIRRUS         RH
        (KM)    (MB)    (K)   MOL/CM2 KM ATM CM/KM   (-)       (-)       (-)       (-)       (-)       (-)      (PERCNT)

   1     0.00 1013.000  299.7  6.101E+22 4.556E-06 7.700E-01 0.000E+00 0.000E+00 0.000E+00 2.462E+00 0.000E+00 7.553E+01
   2     1.00  904.000  293.7  3.828E+22 4.945E-06 7.700E-01 0.000E+00 0.000E+00 0.000E+00 2.544E+00 0.000E+00 7.277E+01
   3     2.00  805.000  287.7  2.500E+22 5.227E-06 6.210E-02 0.000E+00 0.000E+00 0.000E+00 2.011E-01 0.000E+00 7.451E+01
   4     3.00  715.000  283.7  1.145E+22 5.374E-06 0.000E+00 3.460E-02 0.000E+00 0.000E+00 0.000E+00 0.000E+00 4.825E+01
   5     4.00  633.000  277.0  4.881E+21 5.464E-06 0.000E+00 1.850E-02 0.000E+00 0.000E+00 0.000E+00 0.000E+00 3.491E+01
   6     5.00  559.000  270.3  3.015E+21 5.436E-06 0.000E+00 9.310E-03 0.000E+00 0.000E+00 0.000E+00 0.000E+00 3.771E+01
   7     6.00  492.000  263.6  1.544E+21 5.585E-06 0.000E+00 7.710E-03 0.000E+00 0.000E+00 0.000E+00 0.000E+00 3.479E+01
   8     7.00  432.000  257.0  7.690E+20 5.710E-06 0.000E+00 6.230E-03 0.000E+00 0.000E+00 0.000E+00 0.000E+00 3.198E+01
   9     8.00  378.000  250.3  3.680E+20 5.659E-06 0.000E+00 3.370E-03 0.000E+00 0.000E+00 0.000E+00 0.000E+00 2.947E+01
  10     9.00  329.000  243.6  1.580E+20 5.571E-06 0.000E+00 1.820E-03 0.000E+00 0.000E+00 0.000E+00 0.000E+00 2.535E+01
  11    10.00  286.000  237.0  5.886E+19 5.660E-06 0.000E+00 1.140E-03 0.000E+00 0.000E+00 0.000E+00 0.000E+00 1.951E+01
  12    11.00  247.000  230.1  1.780E+19 5.845E-06 0.000E+00 0.000E+00 7.990E-04 0.000E+00 0.000E+00 0.000E+00 1.315E+01
  13    12.00  213.000  223.6  5.573E+18 6.189E-06 0.000E+00 0.000E+00 6.410E-04 0.000E+00 0.000E+00 0.000E+00 9.253E+00
  14    13.00  182.000  217.0  1.472E+18 6.240E-06 0.000E+00 0.000E+00 5.170E-04 0.000E+00 0.000E+00 0.000E+00 5.881E+00
  15    14.00  156.000  210.3  7.236E+17 6.659E-06 0.000E+00 0.000E+00 4.420E-04 0.000E+00 0.000E+00 0.000E+00 7.410E+00
  16    15.00  132.000  203.7  3.551E+17 7.896E-06 0.000E+00 0.000E+00 3.950E-04 0.000E+00 0.000E+00 0.000E+00 9.923E+00
  17    16.00  111.000  197.0  2.014E+17 1.119E-05 0.000E+00 0.000E+00 3.820E-04 0.000E+00 0.000E+00 0.000E+00 1.677E+01
  18    17.00   93.700  194.8  1.419E+17 1.699E-05 0.000E+00 0.000E+00 4.250E-04 0.000E+00 0.000E+00 0.000E+00 1.924E+01
  19    18.00   78.900  198.8  9.158E+16 2.257E-05 0.000E+00 0.000E+00 5.200E-04 0.000E+00 0.000E+00 0.000E+00 8.321E+00
  20    19.00   66.600  202.7  5.934E+16 2.808E-05 0.000E+00 0.000E+00 5.810E-04 0.000E+00 0.000E+00 0.000E+00 3.752E+00
  21    20.00   56.500  206.7  4.107E+16 3.095E-05 0.000E+00 0.000E+00 5.890E-04 0.000E+00 0.000E+00 0.000E+00 1.818E+00
  22    21.00   48.000  210.7  2.908E+16 3.034E-05 0.000E+00 0.000E+00 5.020E-04 0.000E+00 0.000E+00 0.000E+00 9.217E-01
  23    22.00   40.900  214.6  2.150E+16 2.805E-05 0.000E+00 0.000E+00 4.200E-04 0.000E+00 0.000E+00 0.000E+00 5.033E-01
  24    23.00   35.000  217.0  1.595E+16 2.496E-05 0.000E+00 0.000E+00 3.000E-04 0.000E+00 0.000E+00 0.000E+00 3.313E-01
  25    24.00   30.000  219.2  1.267E+16 2.155E-05 0.000E+00 0.000E+00 1.980E-04 0.000E+00 0.000E+00 0.000E+00 2.401E-01
  26    25.00   25.700  221.4  9.258E+15 1.756E-05 0.000E+00 0.000E+00 1.310E-04 0.000E+00 0.000E+00 0.000E+00 1.611E-01
  27    30.00   12.200  232.3  2.333E+15 5.295E-06 0.000E+00 0.000E+00 3.320E-05 0.000E+00 0.000E+00 0.000E+00 2.817E-02
  28    35.00    6.000  243.1  5.924E+14 1.091E-06 0.000E+00 0.000E+00 0.000E+00 1.640E-05 0.000E+00 0.000E+00 5.440E-03
  29    40.00    3.050  254.0  1.585E+14 1.725E-07 0.000E+00 0.000E+00 0.000E+00 7.990E-06 0.000E+00 0.000E+00 1.173E-03
  30    45.00    1.590  264.8  4.345E+13 1.959E-08 0.000E+00 0.000E+00 0.000E+00 4.010E-06 0.000E+00 0.000E+00 2.777E-04
  31    50.00    0.854  270.2  1.267E+13 4.729E-09 0.000E+00 0.000E+00 0.000E+00 2.100E-06 0.000E+00 0.000E+00 1.041E-04
  32    70.00    0.058  218.9  6.679E+10 2.336E-10 0.000E+00 0.000E+00 0.000E+00 1.600E-07 0.000E+00 0.000E+00 6.767E-04
  33   100.00    0.000  190.7  1.942E+05 1.115E-12 0.000E+00 0.000E+00 0.000E+00 9.310E-10 0.000E+00 0.000E+00 1.583E-05
1
  ATMOSPHERIC PROFILES

   I      Z       P       T      H2O      O3       CO2      CO       CH4      N2O      O2       NH3      NO       NO2      SO2
         (KM)    (MB)    (K)  (                                 ATM CM/KM                                                     )
   1     0.00 1013.000  299.7  2.36E+03 2.61E-03 0.00E+00 1.37E-02 1.55E-01 2.91E-02 1.90E+04 4.55E-05 2.73E-05 2.09E-06 2.73E-05
   2     1.00  904.000  293.7  1.62E+03 2.61E-03 0.00E+00 1.20E-02 1.41E-01 2.65E-02 1.73E+04 4.15E-05 2.49E-05 1.91E-06 2.27E-05
   3     2.00  805.000  287.7  1.16E+03 2.52E-03 0.00E+00 1.05E-02 1.28E-01 2.41E-02 1.58E+04 3.49E-05 2.26E-05 1.73E-06 1.78E-05
   4     3.00  715.000  283.7  5.84E+02 2.38E-03 0.00E+00 9.16E-03 1.15E-01 2.17E-02 1.42E+04 2.58E-05 2.04E-05 1.56E-06 1.29E-05
   5     4.00  633.000  277.0  2.73E+02 2.19E-03 0.00E+00 8.08E-03 1.05E-01 1.97E-02 1.29E+04 1.77E-05 1.85E-05 1.42E-06 8.99E-06
   6     5.00  559.000  270.3  1.86E+02 2.10E-03 0.00E+00 7.26E-03 9.47E-02 1.78E-02 1.16E+04 1.14E-05 1.67E-05 1.28E-06 6.57E-06
   7     6.00  492.000  263.6  1.06E+02 2.01E-03 0.00E+00 6.48E-03 8.55E-02 1.61E-02 1.05E+04 7.34E-06 1.51E-05 1.16E-06 4.88E-06
   8     7.00  432.000  257.0  5.84E+01 1.91E-03 0.00E+00 5.65E-03 7.69E-02 1.45E-02 9.46E+03 4.47E-06 1.36E-05 1.04E-06 3.76E-06
   9     8.00  378.000  250.3  3.11E+01 1.82E-03 0.00E+00 4.82E-03 6.90E-02 1.30E-02 8.50E+03 2.64E-06 1.22E-05 9.36E-07 2.93E-06
  10     9.00  329.000  243.6  1.49E+01 1.82E-03 0.00E+00 3.98E-03 6.16E-02 1.16E-02 7.60E+03 1.37E-06 1.09E-05 8.44E-07 2.39E-06
  11    10.00  286.000  237.0  6.22E+00 1.82E-03 0.00E+00 3.24E-03 5.48E-02 1.03E-02 6.79E+03 6.60E-07 9.75E-06 7.74E-07 1.98E-06
  12    11.00  247.000  230.1  2.11E+00 1.91E-03 0.00E+00 2.59E-03 4.84E-02 9.08E-03 6.04E+03 3.15E-07 8.68E-06 7.58E-07 1.67E-06
  13    12.00  213.000  223.6  7.45E-01 2.01E-03 0.00E+00 2.01E-03 4.27E-02 7.94E-03 5.36E+03 1.62E-07 7.70E-06 8.08E-07 1.44E-06
  14    13.00  182.000  217.0  2.24E-01 2.10E-03 0.00E+00 1.44E-03 3.72E-02 6.89E-03 4.72E+03 7.05E-08 6.76E-06 1.01E-06 1.26E-06
  15    14.00  156.000  210.3  1.24E-01 2.10E-03 0.00E+00 1.00E-03 3.25E-02 5.99E-03 4.18E+03 2.22E-08 5.90E-06 1.49E-06 1.13E-06
  16    15.00  132.000  203.7  6.98E-02 2.19E-03 0.00E+00 6.88E-04 2.80E-02 5.14E-03 3.65E+03 7.80E-09 4.94E-06 2.99E-06 1.00E-06
  17    16.00  111.000  197.0  4.55E-02 2.19E-03 0.00E+00 4.66E-04 2.40E-02 4.37E-03 3.17E+03 3.20E-09 4.07E-06 4.84E-06 8.73E-07
  18    17.00   93.700  194.8  3.76E-02 3.24E-03 0.00E+00 3.23E-04 2.01E-02 3.61E-03 2.71E+03 1.43E-09 3.27E-06 6.73E-06 6.96E-07
  19    18.00   78.900  198.8  2.94E-02 5.35E-03 0.00E+00 2.10E-04 1.63E-02 2.86E-03 2.23E+03 7.16E-10 2.57E-06 8.24E-06 5.11E-07
  20    19.00   66.600  202.7  2.30E-02 8.41E-03 0.00E+00 1.37E-04 1.31E-02 2.24E-03 1.85E+03 3.51E-10 2.16E-06 9.38E-06 3.51E-07
  21    20.00   56.500  206.7  1.91E-02 1.03E-02 0.00E+00 9.80E-05 1.05E-02 1.74E-03 1.54E+03 1.77E-10 1.88E-06 1.02E-05 2.35E-07
  22    21.00   48.000  210.7  1.63E-02 1.10E-02 0.00E+00 7.56E-05 8.32E-03 1.35E-03 1.28E+03 1.18E-10 1.70E-06 1.08E-05 1.64E-07
  23    22.00   40.900  214.6  1.44E-02 1.23E-02 0.00E+00 6.33E-05 6.53E-03 1.05E-03 1.07E+03 8.83E-11 1.58E-06 1.11E-05 1.17E-07
  24    23.00   35.000  217.0  1.26E-02 1.48E-02 0.00E+00 5.68E-05 5.18E-03 8.55E-04 9.08E+02 6.91E-11 1.56E-06 1.12E-05 8.99E-08
  25    24.00   30.000  219.2  1.18E-02 1.59E-02 0.00E+00 5.16E-05 4.12E-03 6.91E-04 7.71E+02 5.31E-11 1.66E-06 1.13E-05 7.01E-08
  26    25.00   25.700  221.4  1.02E-02 1.69E-02 0.00E+00 4.76E-05 3.30E-03 5.49E-04 6.54E+02 3.85E-11 2.14E-06 1.17E-05 5.47E-08
  27    30.00   12.200  232.3  5.66E-03 1.32E-02 0.00E+00 2.82E-05 1.29E-03 2.00E-04 2.96E+02 8.98E-12 3.47E-06 8.72E-06 1.90E-08
  28    35.00    6.000  243.1  3.06E-03 6.45E-03 0.00E+00 1.65E-05 4.96E-04 6.17E-05 1.39E+02 1.21E-12 4.75E-06 4.84E-06 7.71E-09
  29    40.00    3.050  254.0  1.68E-03 2.43E-03 0.00E+00 1.00E-05 1.82E-04 1.46E-05 6.76E+01 9.51E-14 3.62E-06 1.30E-06 4.40E-09
  30    45.00    1.590  264.8  9.22E-04 7.28E-04 0.00E+00 6.45E-06 5.87E-05 2.57E-06 3.38E+01 4.82E-15 1.89E-06 1.86E-07 3.40E-09
  31    50.00    0.854  270.2  5.11E-04 2.38E-04 0.00E+00 4.34E-06 1.79E-05 4.05E-07 1.78E+01 6.07E-16 8.77E-07 3.77E-08 3.03E-09
  32    70.00    0.058  218.9  3.21E-05 2.14E-06 0.00E+00 1.38E-06 1.07E-06 8.20E-09 1.49E+00 1.83E-17 8.21E-08 1.65E-09 3.08E-10
  33   100.00    0.000  190.7  1.63E-08 1.63E-08 0.00E+00 6.96E-07 4.90E-09 1.36E-11 6.53E-03 6.04E-20 8.49E-08 6.94E-12 1.46E-14
1
  ATMOSPHERIC PROFILES

   I      Z       P       T     CFC-11   CFC-12   CFC-13   CFC-14   CFC-22   CFC-113  CFC-114  CFC-115  CLONO2    HNO4    CHCL2F 
                                 CCL4     N2O5  
         (KM)    (MB)    (K)  (                                 ATM CM/KM                                                     )
   1     0.00 1013.000  299.7  1.27E-05 2.19E-05 9.11E-14 9.11E-14 5.46E-06 1.73E-06 1.09E-06 9.11E-14 5.24E-07 3.95E-08 9.11E-14
                               1.18E-05 2.20E-11
   2     1.00  904.000  293.7  1.16E-05 1.99E-05 8.29E-14 8.29E-14 4.97E-06 1.58E-06 9.95E-07 8.29E-14 4.25E-07 1.77E-07 8.29E-14
                               1.08E-05 7.91E-11
   3     2.00  805.000  287.7  1.06E-05 1.81E-05 7.54E-14 7.54E-14 4.52E-06 1.43E-06 9.05E-07 7.54E-14 3.40E-07 2.89E-07 7.54E-14
                               9.80E-06 1.26E-10
   4     3.00  715.000  283.7  9.51E-06 1.63E-05 6.79E-14 6.79E-14 4.06E-06 1.29E-06 8.15E-07 6.79E-14 2.64E-07 3.76E-07 6.79E-14
                               8.83E-06 1.61E-10
   5     4.00  633.000  277.0  8.62E-06 1.48E-05 6.16E-14 6.16E-14 3.68E-06 1.17E-06 7.39E-07 6.16E-14 2.01E-07 4.46E-07 6.16E-14
                               8.00E-06 1.90E-10
   6     5.00  559.000  270.3  7.80E-06 1.34E-05 5.57E-14 5.57E-14 3.33E-06 1.06E-06 6.69E-07 5.57E-14 1.53E-07 1.01E-06 5.57E-14
                               7.23E-06 2.01E-10
   7     6.00  492.000  263.6  7.04E-06 1.21E-05 5.03E-14 5.03E-14 3.00E-06 9.55E-07 6.03E-07 5.03E-14 1.13E-07 1.46E-06 5.03E-14
                               6.51E-06 2.07E-10
   8     7.00  432.000  257.0  6.34E-06 1.09E-05 4.53E-14 4.53E-14 2.70E-06 8.60E-07 5.43E-07 4.53E-14 7.90E-08 1.81E-06 4.53E-14
                               5.86E-06 2.10E-10
   9     8.00  378.000  250.3  5.70E-06 9.76E-06 4.07E-14 4.07E-14 2.43E-06 7.73E-07 4.88E-07 4.07E-14 5.04E-08 2.07E-06 4.07E-14
                               5.25E-06 2.10E-10
  10     9.00  329.000  243.6  5.09E-06 8.72E-06 3.64E-14 3.64E-14 2.17E-06 6.91E-07 4.37E-07 3.64E-14 4.40E-08 1.79E-06 3.64E-14
                               4.69E-06 2.10E-10
  11    10.00  286.000  237.0  4.54E-06 7.79E-06 3.25E-14 3.25E-14 1.94E-06 6.16E-07 3.90E-07 3.25E-14 3.82E-08 1.54E-06 3.25E-14
                               4.19E-06 2.07E-10
  12    11.00  247.000  230.1  4.03E-06 6.92E-06 2.89E-14 2.89E-14 1.72E-06 5.47E-07 3.47E-07 2.89E-14 3.31E-08 1.32E-06 2.89E-14
                               3.73E-06 2.02E-10
  13    12.00  213.000  223.6  3.57E-06 6.13E-06 2.57E-14 2.57E-14 1.53E-06 4.85E-07 3.08E-07 2.57E-14 2.85E-08 1.12E-06 2.57E-14
                               3.31E-06 1.94E-10
  14    13.00  182.000  217.0  3.05E-06 5.32E-06 2.26E-14 2.26E-14 1.33E-06 4.19E-07 2.68E-07 2.26E-14 1.81E-07 1.28E-06 2.26E-14
                               2.82E-06 9.96E-09
  15    14.00  156.000  210.3  2.62E-06 4.64E-06 2.00E-14 2.00E-14 1.17E-06 3.64E-07 2.35E-07 2.00E-14 2.98E-07 1.39E-06 2.00E-14
                               2.42E-06 1.75E-08
  16    15.00  132.000  203.7  2.22E-06 3.99E-06 1.75E-14 1.75E-14 1.01E-06 3.12E-07 2.03E-07 1.75E-14 3.81E-07 1.44E-06 1.75E-14
                               2.04E-06 2.28E-08
  17    16.00  111.000  197.0  1.87E-06 3.42E-06 1.52E-14 1.52E-14 8.68E-07 2.66E-07 1.75E-07 1.52E-14 4.36E-07 1.44E-06 1.52E-14
                               1.72E-06 2.64E-08
  18    17.00   93.700  194.8  1.46E-06 2.78E-06 1.30E-14 1.30E-14 7.21E-07 2.14E-07 1.45E-07 1.30E-14 1.32E-06 1.85E-06 1.30E-14
                               1.32E-06 1.14E-07
  19    18.00   78.900  198.8  1.09E-06 2.19E-06 1.07E-14 1.07E-14 5.78E-07 1.66E-07 1.16E-07 1.07E-14 1.86E-06 2.03E-06 1.07E-14
                               9.69E-07 1.69E-07
  20    19.00   66.600  202.7  8.05E-07 1.72E-06 8.85E-15 8.85E-15 4.65E-07 1.29E-07 9.32E-08 8.85E-15 2.19E-06 2.10E-06 8.85E-15
                               7.03E-07 2.02E-07
  21    20.00   56.500  206.7  5.91E-07 1.35E-06 7.36E-15 7.36E-15 3.75E-07 1.00E-07 7.51E-08 7.36E-15 2.36E-06 2.10E-06 7.36E-15
                               5.02E-07 2.20E-07
  22    21.00   48.000  210.7  4.21E-07 1.05E-06 6.14E-15 6.14E-15 3.00E-07 7.60E-08 5.99E-08 6.14E-15 2.82E-06 2.16E-06 6.14E-15
                               3.51E-07 2.54E-07
  23    22.00   40.900  214.6  2.93E-07 8.11E-07 5.13E-15 5.13E-15 2.41E-07 5.73E-08 4.78E-08 5.13E-15 3.08E-06 2.15E-06 5.13E-15
                               2.37E-07 2.72E-07
  24    23.00   35.000  217.0  1.98E-07 6.30E-07 4.35E-15 4.35E-15 1.95E-07 4.32E-08 3.85E-08 4.35E-15 3.22E-06 2.11E-06 4.35E-15
                               1.52E-07 2.80E-07
  25    24.00   30.000  219.2  1.25E-07 4.87E-07 3.69E-15 3.69E-15 1.59E-07 3.21E-08 3.10E-08 3.69E-15 3.24E-06 2.04E-06 3.69E-15
                               8.85E-08 2.81E-07
  26    25.00   25.700  221.4  8.53E-08 3.72E-07 3.13E-15 3.13E-15 1.28E-07 2.38E-08 2.49E-08 3.13E-15 3.04E-06 1.82E-06 3.13E-15
                               5.89E-08 2.41E-07
  27    30.00   12.200  232.3  5.52E-09 8.33E-08 1.41E-15 1.41E-15 4.28E-08 4.12E-09 7.97E-09 1.41E-15 1.61E-06 7.22E-07 1.41E-15
                               2.48E-09 7.81E-08
  28    35.00    6.000  243.1  1.32E-10 1.42E-08 6.65E-16 6.65E-16 1.38E-08 4.77E-10 2.43E-09 6.65E-16 3.48E-07 9.77E-08 6.65E-16
                               2.63E-11 7.19E-09
  29    40.00    3.050  254.0  5.98E-13 1.97E-09 3.23E-16 3.23E-16 4.50E-09 3.98E-11 7.50E-10 3.23E-16 1.38E-08 3.22E-09 3.23E-16
                               1.28E-14 6.89E-11
  30    45.00    1.590  264.8  1.49E-14 3.45E-10 1.62E-16 1.62E-16 1.68E-09 5.20E-12 2.62E-10 1.62E-16 2.72E-10 1.41E-10 1.62E-16
                               9.01E-17 6.37E-13
  31    50.00    0.854  270.2  5.08E-16 7.25E-11 8.51E-17 8.51E-17 7.48E-10 8.43E-13 1.06E-10 8.51E-17 3.97E-12 6.50E-12 8.51E-17
                               9.31E-19 5.35E-15
  32    70.00    0.058  218.9  3.63E-21 2.79E-13 7.14E-18 7.14E-18 5.13E-11 1.25E-15 4.18E-12 7.14E-18 5.16E-19 2.29E-16 7.14E-18
                               7.05E-26 5.85E-23
  33   100.00    0.000  190.7  1.27E-30 1.01E-18 4.08E-20 4.08E-20 7.31E-14 5.35E-22 8.70E-16 4.08E-20 3.30E-35 1.36E-31 4.08E-20
                               2.08E-38 0.00E+00


 CASE 3A: GIVEN H1,H2=SPACE,ANGLE



 TANGENT PATH WITH H1 =     20.000 AND ANGLE =    180.000 INTERSECTS THE EARTH

          H2 HAS BEEN RESET TO 0.0 AND LEN TO 0



 SLANT PATH PARAMETERS IN STANDARD FORM

          H1      =     20.000 KM
          H2      =      0.000 KM
          ANGLE   =    180.000 DEG
          PHI     =      0.000 DEG
          HMIN    =      0.000 KM
          LEN     =          0
1CALCULATION OF THE REFRACTED PATH THROUGH THE ATMOSPHERE


  I       ALTITUDE        THETA  DRANGE    RANGE    DBETA     BETA     PHI     DBEND  BENDING    PBAR    TBAR   RHOBAR
      FROM       TO
      (KM)      (KM)      (DEG)    (KM)     (KM)    (DEG)    (DEG)    (DEG)    (DEG)    (DEG)    (MB)    (K)  (GM CM-3)

          H2 TO H1

  1    0.000    1.000    0.000    1.000    1.000    0.000    0.000  180.000    0.000    0.000  958.316  296.74 1.12E-03
  2    1.000    2.000    0.000    1.000    2.000    0.000    0.000  180.000    0.000    0.000  854.330  290.74 1.02E-03
  3    2.000    3.000    0.000    1.000    3.000    0.000    0.000  180.000    0.000    0.000  759.895  285.73 9.26E-04
  4    3.000    4.000    0.000    1.000    4.000    0.000    0.000  180.000    0.000    0.000  673.837  280.39 8.36E-04
  5    4.000    5.000    0.000    1.000    5.000    0.000    0.000  180.000    0.000    0.000  595.849  273.69 7.58E-04
  6    5.000    6.000    0.000    1.000    6.000    0.000    0.000  180.000    0.000    0.000  525.360  266.99 6.85E-04
  7    6.000    7.000    0.000    1.000    7.000    0.000    0.000  180.000    0.000    0.000  461.873  260.34 6.17E-04
  8    7.000    8.000    0.000    1.000    8.000    0.000    0.000  180.000    0.000    0.000  404.881  253.70 5.55E-04
  9    8.000    9.000    0.000    1.000    9.000    0.000    0.000  180.000    0.000    0.000  353.389  247.00 4.98E-04
 10    9.000   10.000    0.000    1.000   10.000    0.000    0.000  180.000    0.000    0.000  307.402  240.35 4.45E-04
 11   10.000   11.000    0.000    1.000   11.000    0.000    0.000  180.000    0.000    0.000  266.404  233.60 3.97E-04
 12   11.000   12.000    0.000    1.000   12.000    0.000    0.000  180.000    0.000    0.000  229.919  226.90 3.52E-04
 13   12.000   13.000    0.000    1.000   13.000    0.000    0.000  180.000    0.000    0.000  197.423  220.35 3.12E-04
 14   13.000   14.000    0.000    1.000   14.000    0.000    0.000  180.000    0.000    0.000  168.932  213.70 2.75E-04
 15   14.000   15.000    0.000    1.000   15.000    0.000    0.000  180.000    0.000    0.000  143.936  207.06 2.42E-04
 16   15.000   16.000    0.000    1.000   16.000    0.000    0.000  180.000    0.000    0.000  121.442  200.41 2.11E-04
 17   16.000   17.000    0.000    1.000   17.000    0.000    0.000  180.000    0.000    0.000  102.334  195.93 1.82E-04
 18   17.000   18.000    0.000    1.000   18.000    0.000    0.000  180.000    0.000    0.000   86.325  196.73 1.52E-04
 19   18.000   19.000    0.000    1.000   19.000    0.000    0.000  180.000    0.000    0.000   72.770  200.68 1.26E-04
 20   19.000   20.000    0.000    1.000   20.000    0.000    0.000  180.000    0.000    0.000   61.566  204.63 1.05E-04




1CUMULATIVE ABSORBER AMOUNTS FOR THE PATH FROM H1 TO Z

  J     Z        TBAR     HNO3        O3 UV      CNTMSLF1   CNTMSLF2    CNTMFRN      O2
       (KM)       (K)   (ATM CM)    (ATM CM)    (MOL CM-2)  (MOL CM-2)  (MOL CM-2)(MOL CM-2)

  1   19.000   204.63   2.951E-05   9.359E-03   1.290E+11   3.273E+11   4.965E+16   1.804E+03
  2   18.000   200.68   5.484E-05   1.624E-02   3.279E+11   8.541E+11   1.239E+17   4.006E+03
  3   17.000   196.73   7.462E-05   2.053E-02   6.528E+11   1.750E+12   2.388E+17   6.712E+03
  4   16.000   195.93   8.871E-05   2.324E-02   1.154E+12   3.143E+12   4.087E+17   9.990E+03
  5   15.000   200.41   9.826E-05   2.544E-02   2.108E+12   5.676E+12   6.797E+17   1.386E+04
  6   14.000   207.06   1.055E-04   2.758E-02   4.777E+12   1.227E+13   1.197E+18   1.837E+04
  7   13.000   213.70   1.120E-04   2.968E-02   1.334E+13   3.185E+13   2.251E+18   2.360E+04
  8   12.000   220.35   1.182E-04   3.173E-02   7.449E+13   1.603E+14   5.332E+18   2.965E+04
  9   11.000   226.90   1.242E-04   3.369E-02   6.205E+14   1.208E+15   1.586E+19   3.664E+04
 10   10.000   233.60   1.300E-04   3.556E-02   5.229E+15   9.197E+15   5.019E+19   4.469E+04
 11    9.000   240.35   1.356E-04   3.738E-02   3.578E+16   5.643E+16   1.506E+20   5.394E+04
 12    8.000   247.00   1.412E-04   3.920E-02   1.831E+17   2.569E+17   3.989E+20   6.456E+04
 13    7.000   253.70   1.469E-04   4.106E-02   7.467E+17   9.192E+17   9.430E+20   7.674E+04
 14    6.000   260.34   1.525E-04   4.302E-02   2.649E+18   2.803E+18   2.055E+21   9.068E+04
 15    5.000   266.99   1.580E-04   4.507E-02   8.694E+18   7.674E+18   4.253E+21   1.066E+05
 16    4.000   273.69   1.635E-04   4.722E-02   2.389E+19   1.709E+19   8.127E+21   1.248E+05
 17    3.000   280.39   1.689E-04   4.950E-02   7.495E+19   3.923E+19   1.583E+22   1.456E+05
 18    2.000   285.73   1.742E-04   5.195E-02   2.871E+20   9.976E+19   3.318E+22   1.695E+05
 19    1.000   290.74   1.793E-04   5.452E-02   8.413E+20   1.808E+20   6.435E+22   1.969E+05
 20    0.000   296.74   1.840E-04   5.713E-02   1.979E+21   1.575E+20   1.131E+23   2.282E+05



1 J     Z       N2 CONT    MOL SCAT       AER 1       AER 2       AER 3       AER 4       CIRRUS
       (KM)

  1   19.000   6.026E-03   8.090E-02   0.000E+00   0.000E+00   5.850E-04   0.000E+00   0.000E+00
  2   18.000   1.478E-02   1.784E-01   0.000E+00   0.000E+00   1.136E-03   0.000E+00   0.000E+00
  3   17.000   2.759E-02   2.964E-01   0.000E+00   0.000E+00   1.608E-03   0.000E+00   0.000E+00
  4   16.000   4.575E-02   4.368E-01   0.000E+00   0.000E+00   2.012E-03   0.000E+00   0.000E+00
  5   15.000   7.019E-02   5.999E-01   0.000E+00   0.000E+00   2.400E-03   0.000E+00   0.000E+00
  6   14.000   1.024E-01   7.869E-01   0.000E+00   0.000E+00   2.818E-03   0.000E+00   0.000E+00
  7   13.000   1.440E-01   9.997E-01   0.000E+00   0.000E+00   3.297E-03   0.000E+00   0.000E+00
  8   12.000   1.974E-01   1.241E+00   0.000E+00   0.000E+00   3.873E-03   0.000E+00   0.000E+00
  9   11.000   2.658E-01   1.514E+00   0.000E+00   0.000E+00   4.590E-03   0.000E+00   0.000E+00
 10   10.000   3.524E-01   1.821E+00   0.000E+00   5.700E-04   4.990E-03   0.000E+00   0.000E+00
 11    9.000   4.614E-01   2.165E+00   0.000E+00   2.024E-03   4.990E-03   0.000E+00   0.000E+00
 12    8.000   5.978E-01   2.550E+00   0.000E+00   4.540E-03   4.990E-03   0.000E+00   0.000E+00
 13    7.000   7.674E-01   2.980E+00   0.000E+00   9.194E-03   4.990E-03   0.000E+00   0.000E+00
 14    6.000   9.771E-01   3.458E+00   0.000E+00   1.614E-02   4.990E-03   0.000E+00   0.000E+00
 15    5.000   1.235E+00   3.987E+00   0.000E+00   2.462E-02   4.990E-03   0.000E+00   0.000E+00
 16    4.000   1.551E+00   4.574E+00   0.000E+00   3.801E-02   4.990E-03   0.000E+00   0.000E+00
 17    3.000   1.936E+00   5.221E+00   0.000E+00   6.372E-02   4.990E-03   0.000E+00   0.000E+00
 18    2.000   2.407E+00   5.937E+00   3.105E-02   8.102E-02   4.990E-03   0.000E+00   0.000E+00
 19    1.000   2.983E+00   6.729E+00   3.122E-01   8.102E-02   4.990E-03   0.000E+00   0.000E+00
 20    0.000   3.678E+00   7.598E+00   1.082E+00   8.102E-02   4.990E-03   0.000E+00   0.000E+00



1  J    Z       H2O       O3        CO2       CO        CH4       N2O       O2        NH3       NO        NO2       SO2
      (KM)    (                                                      ATM CM                                             )

   1   19.00  2.10E-02  9.36E-03  0.00E+00  1.16E-04  1.17E-02  1.98E-03  1.69E+03  2.55E-10  2.02E-06  9.81E-06  2.89E-07
   2   18.00  4.71E-02  1.62E-02  0.00E+00  2.88E-04  2.64E-02  4.51E-03  3.73E+03  7.67E-10  4.37E-06  1.86E-05  7.16E-07
   3   17.00  8.04E-02  2.05E-02  0.00E+00  5.50E-04  4.45E-02  7.73E-03  6.19E+03  1.80E-09  7.27E-06  2.61E-05  1.31E-06
   4   16.00  1.22E-01  2.32E-02  0.00E+00  9.40E-04  6.65E-02  1.17E-02  9.12E+03  3.99E-09  1.09E-05  3.19E-05  2.10E-06
   5   15.00  1.79E-01  2.54E-02  0.00E+00  1.51E-03  9.25E-02  1.64E-02  1.25E+04  9.16E-09  1.54E-05  3.58E-05  3.03E-06
   6   14.00  2.73E-01  2.76E-02  0.00E+00  2.35E-03  1.23E-01  2.20E-02  1.64E+04  2.29E-08  2.08E-05  3.80E-05  4.10E-06
   7   13.00  4.42E-01  2.97E-02  0.00E+00  3.55E-03  1.57E-01  2.84E-02  2.09E+04  6.47E-08  2.71E-05  3.93E-05  5.29E-06
   8   12.00  8.76E-01  3.17E-02  0.00E+00  5.26E-03  1.97E-01  3.58E-02  2.59E+04  1.75E-07  3.44E-05  4.02E-05  6.64E-06
   9   11.00  2.19E+00  3.37E-02  0.00E+00  7.55E-03  2.43E-01  4.43E-02  3.16E+04  4.05E-07  4.25E-05  4.10E-05  8.19E-06
  10   10.00  5.99E+00  3.56E-02  0.00E+00  1.05E-02  2.94E-01  5.40E-02  3.80E+04  8.71E-07  5.17E-05  4.17E-05  1.00E-05
  11    9.00  1.59E+01  3.74E-02  0.00E+00  1.40E-02  3.52E-01  6.50E-02  4.52E+04  1.84E-06  6.21E-05  4.26E-05  1.22E-05
  12    8.00  3.79E+01  3.92E-02  0.00E+00  1.84E-02  4.18E-01  7.73E-02  5.33E+04  3.78E-06  7.36E-05  4.34E-05  1.48E-05
  13    7.00  8.12E+01  4.11E-02  0.00E+00  2.37E-02  4.91E-01  9.10E-02  6.22E+04  7.25E-06  8.65E-05  4.44E-05  1.82E-05
  14    6.00  1.61E+02  4.30E-02  0.00E+00  2.97E-02  5.72E-01  1.06E-01  7.22E+04  1.30E-05  1.01E-04  4.55E-05  2.25E-05
  15    5.00  3.03E+02  4.51E-02  0.00E+00  3.66E-02  6.62E-01  1.23E-01  8.33E+04  2.23E-05  1.17E-04  4.68E-05  2.81E-05
  16    4.00  5.30E+02  4.72E-02  0.00E+00  4.42E-02  7.61E-01  1.42E-01  9.55E+04  3.66E-05  1.34E-04  4.81E-05  3.59E-05
  17    3.00  9.39E+02  4.95E-02  0.00E+00  5.28E-02  8.71E-01  1.63E-01  1.09E+05  5.81E-05  1.54E-04  4.96E-05  4.67E-05
  18    2.00  1.78E+03  5.19E-02  0.00E+00  6.27E-02  9.93E-01  1.86E-01  1.24E+05  8.82E-05  1.75E-04  5.12E-05  6.19E-05
  19    1.00  3.15E+03  5.45E-02  0.00E+00  7.39E-02  1.13E+00  2.11E-01  1.41E+05  1.26E-04  1.99E-04  5.31E-05  8.21E-05
  20    0.00  5.12E+03  5.71E-02  0.00E+00  8.68E-02  1.28E+00  2.39E-01  1.59E+05  1.70E-04  2.25E-04  5.51E-05  1.07E-04



1  J    Z      CFC-11    CFC-12    CFC-13    CFC-14    CFC-22    CFC-113   CFC-114   CFC-115   CLONO2     HNO4     CHCL2F 
                CCL4      N2O5  
      (KM)    (                                                   ATM CM                                                )

   1   19.00  6.92E-07  1.53E-06  8.08E-15  8.08E-15  4.18E-07  1.14E-07  8.38E-08  8.08E-15  2.27E-06  2.10E-06  8.08E-15
              5.97E-07  2.11E-07
   2   18.00  1.63E-06  3.47E-06  1.78E-14  1.78E-14  9.37E-07  2.61E-07  1.88E-07  1.78E-14  4.30E-06  4.17E-06  1.78E-14
              1.43E-06  3.97E-07
   3   17.00  2.89E-06  5.95E-06  2.96E-14  2.96E-14  1.58E-06  4.50E-07  3.18E-07  2.96E-14  5.89E-06  6.11E-06  2.96E-14
              2.56E-06  5.38E-07
   4   16.00  4.54E-06  9.04E-06  4.37E-14  4.37E-14  2.38E-06  6.89E-07  4.77E-07  4.37E-14  6.76E-06  7.75E-06  4.37E-14
              4.07E-06  6.09E-07
   5   15.00  6.58E-06  1.27E-05  5.99E-14  5.99E-14  3.31E-06  9.77E-07  6.66E-07  5.99E-14  7.17E-06  9.19E-06  5.99E-14
              5.94E-06  6.33E-07
   6   14.00  8.99E-06  1.70E-05  7.86E-14  7.86E-14  4.40E-06  1.31E-06  8.84E-07  7.86E-14  7.51E-06  1.06E-05  7.86E-14
              8.17E-06  6.53E-07
   7   13.00  1.18E-05  2.20E-05  9.99E-14  9.99E-14  5.65E-06  1.70E-06  1.14E-06  9.99E-14  7.75E-06  1.19E-05  9.99E-14
              1.08E-05  6.67E-07
   8   12.00  1.51E-05  2.77E-05  1.24E-13  1.24E-13  7.07E-06  2.16E-06  1.42E-06  1.24E-13  7.86E-06  1.31E-05  1.24E-13
              1.38E-05  6.72E-07
   9   11.00  1.89E-05  3.42E-05  1.51E-13  1.51E-13  8.69E-06  2.67E-06  1.75E-06  1.51E-13  7.89E-06  1.44E-05  1.51E-13
              1.74E-05  6.72E-07
  10   10.00  2.32E-05  4.16E-05  1.82E-13  1.82E-13  1.05E-05  3.25E-06  2.12E-06  1.82E-13  7.92E-06  1.58E-05  1.82E-13
              2.13E-05  6.72E-07
  11    9.00  2.80E-05  4.98E-05  2.16E-13  2.16E-13  1.26E-05  3.91E-06  2.53E-06  2.16E-13  7.96E-06  1.74E-05  2.16E-13
              2.58E-05  6.73E-07
  12    8.00  3.34E-05  5.91E-05  2.55E-13  2.55E-13  1.49E-05  4.64E-06  2.99E-06  2.55E-13  8.01E-06  1.94E-05  2.55E-13
              3.07E-05  6.73E-07
  13    7.00  3.94E-05  6.94E-05  2.98E-13  2.98E-13  1.74E-05  5.45E-06  3.51E-06  2.98E-13  8.07E-06  2.13E-05  2.98E-13
              3.63E-05  6.73E-07
  14    6.00  4.61E-05  8.08E-05  3.46E-13  3.46E-13  2.03E-05  6.36E-06  4.08E-06  3.46E-13  8.17E-06  2.29E-05  3.46E-13
              4.24E-05  6.73E-07
  15    5.00  5.35E-05  9.35E-05  3.98E-13  3.98E-13  2.35E-05  7.37E-06  4.72E-06  3.98E-13  8.30E-06  2.42E-05  3.98E-13
              4.93E-05  6.74E-07
  16    4.00  6.17E-05  1.08E-04  4.57E-13  4.57E-13  2.70E-05  8.48E-06  5.42E-06  4.57E-13  8.48E-06  2.49E-05  4.57E-13
              5.69E-05  6.74E-07
  17    3.00  7.08E-05  1.23E-04  5.22E-13  5.22E-13  3.08E-05  9.71E-06  6.20E-06  5.22E-13  8.71E-06  2.53E-05  5.22E-13
              6.53E-05  6.74E-07
  18    2.00  8.08E-05  1.40E-04  5.93E-13  5.93E-13  3.51E-05  1.11E-05  7.05E-06  5.93E-13  9.01E-06  2.56E-05  5.93E-13
              7.46E-05  6.74E-07
  19    1.00  9.18E-05  1.59E-04  6.72E-13  6.72E-13  3.98E-05  1.26E-05  8.00E-06  6.72E-13  9.39E-06  2.59E-05  6.72E-13
              8.49E-05  6.74E-07
  20    0.00  1.04E-04  1.80E-04  7.59E-13  7.59E-13  4.51E-05  1.42E-05  9.05E-06  7.59E-13  9.86E-06  2.60E-05  7.59E-13
              9.62E-05  6.74E-07


0SUMMARY OF THE GEOMETRY CALCULATION

          H1      =     20.000 KM
          H2      =      0.000 KM
          ANGLE   =    180.000 DEG
          RANGE   =     20.000 KM
          BETA    =      0.000 DEG
          PHI     =      0.000 DEG
          HMIN    =      0.000 KM
          BENDING =      0.000 DEG
          LEN     =          0




1EQUIVALENT SEA LEVEL TOTAL ABSORBER AMOUNTS

                 HNO3      O3 UV       CNTMSLF1    CNTMSLF2   CNTMFRN
               (ATM CM)   (ATM CM)     (MOL CM-2)  (MOL CM-2)  (MOL CM-2)  (MOL CM-2)

             1.840E-04   5.713E-02   1.979E+21   1.575E+20   1.131E+23


              N2 CONT    MOL SCAT       AER 1       AER 2       AER 3       AER 4     CIRRUS      MEAN RH
                                                                                                  (PRCNT)

             3.678E+00   7.598E+00   1.082E+00   8.102E-02   4.990E-03   0.000E+00   0.000E+00       73.98


                 H2O        O3          CO2         CO          CH4         N2O          O2
               (                                        ATM CM                            )

             5.115E+03   5.713E-02   0.000E+00   8.677E-02   1.275E+00   2.387E-01   1.587E+05

                 NH3        NO          NO2         SO2
                 (               ATM CM               )

             1.697E-04   2.250E-04   5.505E-05   1.070E-04

             CFC-11      CFC-12      CFC-13      CFC-14      CFC-22      CFC-113     CFC-114
                 (                                      ATM CM                            )

             1.040E-04   1.801E-04   7.593E-13   7.593E-13   4.506E-05   1.422E-05   9.047E-06

             CFC-115     CLONO2       HNO4       CHCL2F       CCL4        N2O5  
                 (                                      ATM CM                            )

             7.593E-13   9.861E-06   2.599E-05   7.593E-13   9.622E-05   6.742E-07
1                                             RADIANCE(WATTS/CM2-STER-XXX)
0  FREQ   WAVLEN    PATH THERMAL      SURFACE EMISSION    SURFACE REFLECTED     TOTAL RADIANCE   INTEGRAL    TOTAL
  (CM-1) (MICRN)    (CM-1)   (MICRN)    (CM-1)   (MICRN)    (CM-1)   (MICRN)    (CM-1)   (MICRN)    (CM-1)   TRANS

    100. 100.000  1.23E-06  1.23E-06  0.00E+00  0.00E+00  0.00E+00  0.00E+00  1.23E-06  1.23E-06  1.23E-06  0.00000
    102.  98.039  1.34E-06  1.39E-06  0.00E+00  0.00E+00  0.00E+00  0.00E+00  1.34E-06  1.39E-06  3.91E-06  0.00000
    104.  96.154  1.39E-06  1.50E-06  0.00E+00  0.00E+00  0.00E+00  0.00E+00  1.39E-06  1.50E-06  6.68E-06  0.00000
    106.  94.340  1.39E-06  1.56E-06  0.00E+00  0.00E+00  0.00E+00  0.00E+00  1.39E-06  1.56E-06  9.46E-06  0.00000
    108.  92.593  1.54E-06  1.80E-06  0.00E+00  0.00E+00  0.00E+00  0.00E+00  1.54E-06  1.80E-06  1.25E-05  0.00000
    110.  90.909  1.58E-06  1.92E-06  0.00E+00  0.00E+00  0.00E+00  0.00E+00  1.58E-06  1.92E-06  1.57E-05  0.00000
    112.  89.286  1.60E-06  2.01E-06  0.00E+00  0.00E+00  0.00E+00  0.00E+00  1.60E-06  2.01E-06  1.89E-05  0.00000
    114.  87.719  1.78E-06  2.31E-06  0.00E+00  0.00E+00  0.00E+00  0.00E+00  1.78E-06  2.31E-06  2.25E-05  0.00000
    116.  86.207  1.80E-06  2.43E-06  0.00E+00  0.00E+00  0.00E+00  0.00E+00  1.80E-06  2.43E-06  2.61E-05  0.00000
    118.  84.746  1.77E-06  2.47E-06  0.00E+00  0.00E+00  0.00E+00  0.00E+00  1.77E-06  2.47E-06  2.96E-05  0.00000
    120.  83.333  1.74E-06  2.50E-06  0.00E+00  0.00E+00  0.00E+00  0.00E+00  1.74E-06  2.50E-06  3.31E-05  0.00000
    122.  81.967  1.73E-06  2.57E-06  0.00E+00  0.00E+00  0.00E+00  0.00E+00  1.73E-06  2.57E-06  3.66E-05  0.00000
    124.  80.645  1.93E-06  2.96E-06  0.00E+00  0.00E+00  0.00E+00  0.00E+00  1.93E-06  2.96E-06  4.04E-05  0.00000
    126.  79.365  1.84E-06  2.93E-06  0.00E+00  0.00E+00  0.00E+00  0.00E+00  1.84E-06  2.93E-06  4.41E-05  0.00000
    128.  78.125  1.94E-06  3.18E-06  0.00E+00  0.00E+00  0.00E+00  0.00E+00  1.94E-06  3.18E-06  4.80E-05  0.00000
    130.  76.923  2.09E-06  3.53E-06  0.00E+00  0.00E+00  0.00E+00  0.00E+00  2.09E-06  3.53E-06  5.22E-05  0.00000
    132.  75.758  1.93E-06  3.37E-06  0.00E+00  0.00E+00  0.00E+00  0.00E+00  1.93E-06  3.37E-06  5.60E-05  0.00000
    134.  74.627  2.10E-06  3.77E-06  0.00E+00  0.00E+00  0.00E+00  0.00E+00  2.10E-06  3.77E-06  6.02E-05  0.00000
    136.  73.529  2.28E-06  4.22E-06  0.00E+00  0.00E+00  0.00E+00  0.00E+00  2.28E-06  4.22E-06  6.48E-05  0.00000
    138.  72.464  2.20E-06  4.19E-06  0.00E+00  0.00E+00  0.00E+00  0.00E+00  2.20E-06  4.19E-06  6.92E-05  0.00000
    140.  71.429  2.12E-06  4.15E-06  0.00E+00  0.00E+00  0.00E+00  0.00E+00  2.12E-06  4.15E-06  7.34E-05  0.00000
    142.  70.423  2.37E-06  4.78E-06  0.00E+00  0.00E+00  0.00E+00  0.00E+00  2.37E-06  4.78E-06  7.82E-05  0.00000
    144.  69.444  2.54E-06  5.26E-06  0.00E+00  0.00E+00  0.00E+00  0.00E+00  2.54E-06  5.26E-06  8.32E-05  0.00000
    146.  68.493  2.56E-06  5.46E-06  0.00E+00  0.00E+00  0.00E+00  0.00E+00  2.56E-06  5.46E-06  8.84E-05  0.00000
    148.  67.568  2.44E-06  5.34E-06  0.00E+00  0.00E+00  0.00E+00  0.00E+00  2.44E-06  5.34E-06  9.32E-05  0.00000
    150.  66.667  2.24E-06  5.05E-06  0.00E+00  0.00E+00  0.00E+00  0.00E+00  2.24E-06  5.05E-06  9.77E-05  0.00000
    152.  65.789  2.37E-06  5.49E-06  0.00E+00  0.00E+00  0.00E+00  0.00E+00  2.37E-06  5.49E-06  1.02E-04  0.00000
    154.  64.935  2.57E-06  6.09E-06  0.00E+00  0.00E+00  0.00E+00  0.00E+00  2.57E-06  6.09E-06  1.08E-04  0.00000
    156.  64.103  2.69E-06  6.55E-06  0.00E+00  0.00E+00  0.00E+00  0.00E+00  2.69E-06  6.55E-06  1.13E-04  0.00000
    158.  63.291  2.64E-06  6.58E-06  0.00E+00  0.00E+00  0.00E+00  0.00E+00  2.64E-06  6.58E-06  1.18E-04  0.00000
    160.  62.500  2.90E-06  7.42E-06  0.00E+00  0.00E+00  0.00E+00  0.00E+00  2.90E-06  7.42E-06  1.24E-04  0.00000
    162.  61.728  2.98E-06  7.83E-06  0.00E+00  0.00E+00  0.00E+00  0.00E+00  2.98E-06  7.83E-06  1.30E-04  0.00000
    164.  60.976  3.10E-06  8.34E-06  0.00E+00  0.00E+00  0.00E+00  0.00E+00  3.10E-06  8.34E-06  1.36E-04  0.00000
    166.  60.241  2.96E-06  8.16E-06  0.00E+00  0.00E+00  0.00E+00  0.00E+00  2.96E-06  8.16E-06  1.42E-04  0.00000
    168.  59.524  2.98E-06  8.41E-06  0.00E+00  0.00E+00  0.00E+00  0.00E+00  2.98E-06  8.41E-06  1.48E-04  0.00000
    170.  58.824  2.77E-06  8.00E-06  0.00E+00  0.00E+00  0.00E+00  0.00E+00  2.77E-06  8.00E-06  1.54E-04  0.00000
    172.  58.140  3.02E-06  8.95E-06  0.00E+00  0.00E+00  0.00E+00  0.00E+00  3.02E-06  8.95E-06  1.60E-04  0.00000
    174.  57.471  3.01E-06  9.12E-06  0.00E+00  0.00E+00  0.00E+00  0.00E+00  3.01E-06  9.12E-06  1.66E-04  0.00000
    176.  56.818  3.09E-06  9.57E-06  0.00E+00  0.00E+00  0.00E+00  0.00E+00  3.09E-06  9.57E-06  1.72E-04  0.00000
    178.  56.180  3.05E-06  9.65E-06  0.00E+00  0.00E+00  0.00E+00  0.00E+00  3.05E-06  9.65E-06  1.78E-04  0.00000
    180.  55.556  3.33E-06  1.08E-05  0.00E+00  0.00E+00  0.00E+00  0.00E+00  3.33E-06  1.08E-05  1.85E-04  0.00000
    182.  54.945  3.36E-06  1.11E-05  0.00E+00  0.00E+00  0.00E+00  0.00E+00  3.36E-06  1.11E-05  1.91E-04  0.00000
    184.  54.348  3.58E-06  1.21E-05  0.00E+00  0.00E+00  0.00E+00  0.00E+00  3.58E-06  1.21E-05  1.99E-04  0.00000
    186.  53.763  3.66E-06  1.27E-05  0.00E+00  0.00E+00  0.00E+00  0.00E+00  3.66E-06  1.27E-05  2.06E-04  0.00000
    188.  53.191  3.38E-06  1.19E-05  0.00E+00  0.00E+00  0.00E+00  0.00E+00  3.38E-06  1.19E-05  2.13E-04  0.00000
    190.  52.632  3.73E-06  1.35E-05  0.00E+00  0.00E+00  0.00E+00  0.00E+00  3.73E-06  1.35E-05  2.20E-04  0.00000
    192.  52.083  3.80E-06  1.40E-05  0.00E+00  0.00E+00  0.00E+00  0.00E+00  3.80E-06  1.40E-05  2.28E-04  0.00000
    194.  51.546  3.64E-06  1.37E-05  0.00E+00  0.00E+00  0.00E+00  0.00E+00  3.64E-06  1.37E-05  2.35E-04  0.00000
    196.  51.020  3.78E-06  1.45E-05  0.00E+00  0.00E+00  0.00E+00  0.00E+00  3.78E-06  1.45E-05  2.42E-04  0.00000
    198.  50.505  3.88E-06  1.52E-05  0.00E+00  0.00E+00  0.00E+00  0.00E+00  3.88E-06  1.52E-05  2.50E-04  0.00000
1                                             RADIANCE(WATTS/CM2-STER-XXX)
0  FREQ   WAVLEN    PATH THERMAL      SURFACE EMISSION    SURFACE REFLECTED     TOTAL RADIANCE   INTEGRAL    TOTAL
  (CM-1) (MICRN)    (CM-1)   (MICRN)    (CM-1)   (MICRN)    (CM-1)   (MICRN)    (CM-1)   (MICRN)    (CM-1)   TRANS

    200.  50.000  3.83E-06  1.53E-05  0.00E+00  0.00E+00  0.00E+00  0.00E+00  3.83E-06  1.53E-05  2.58E-04  0.00000
    202.  49.505  3.36E-06  1.37E-05  0.00E+00  0.00E+00  0.00E+00  0.00E+00  3.36E-06  1.37E-05  2.65E-04  0.00000
    204.  49.020  3.67E-06  1.53E-05  0.00E+00  0.00E+00  0.00E+00  0.00E+00  3.67E-06  1.53E-05  2.72E-04  0.00000
    206.  48.544  4.00E-06  1.70E-05  0.00E+00  0.00E+00  0.00E+00  0.00E+00  4.00E-06  1.70E-05  2.80E-04  0.00000
    208.  48.077  3.63E-06  1.57E-05  0.00E+00  0.00E+00  0.00E+00  0.00E+00  3.63E-06  1.57E-05  2.87E-04  0.00000
    210.  47.619  4.04E-06  1.78E-05  0.00E+00  0.00E+00  0.00E+00  0.00E+00  4.04E-06  1.78E-05  2.95E-04  0.00000
    212.  47.170  4.18E-06  1.88E-05  0.00E+00  0.00E+00  0.00E+00  0.00E+00  4.18E-06  1.88E-05  3.04E-04  0.00000
    214.  46.729  3.98E-06  1.82E-05  0.00E+00  0.00E+00  0.00E+00  0.00E+00  3.98E-06  1.82E-05  3.12E-04  0.00000
    216.  46.296  4.37E-06  2.04E-05  0.00E+00  0.00E+00  0.00E+00  0.00E+00  4.37E-06  2.04E-05  3.20E-04  0.00000
    218.  45.872  4.56E-06  2.17E-05  0.00E+00  0.00E+00  0.00E+00  0.00E+00  4.56E-06  2.17E-05  3.30E-04  0.00000
    220.  45.455  4.44E-06  2.15E-05  0.00E+00  0.00E+00  0.00E+00  0.00E+00  4.44E-06  2.15E-05  3.38E-04  0.00000
    222.  45.045  4.04E-06  1.99E-05  0.00E+00  0.00E+00  0.00E+00  0.00E+00  4.04E-06  1.99E-05  3.46E-04  0.00000
    224.  44.643  4.28E-06  2.15E-05  0.00E+00  0.00E+00  0.00E+00  0.00E+00  4.28E-06  2.15E-05  3.55E-04  0.00000
    226.  44.248  4.09E-06  2.09E-05  0.00E+00  0.00E+00  0.00E+00  0.00E+00  4.09E-06  2.09E-05  3.63E-04  0.00000
    228.  43.860  4.03E-06  2.10E-05  0.00E+00  0.00E+00  0.00E+00  0.00E+00  4.03E-06  2.10E-05  3.71E-04  0.00000
    230.  43.478  4.62E-06  2.44E-05  0.00E+00  0.00E+00  0.00E+00  0.00E+00  4.62E-06  2.44E-05  3.81E-04  0.00000
    232.  43.103  4.70E-06  2.53E-05  0.00E+00  0.00E+00  0.00E+00  0.00E+00  4.70E-06  2.53E-05  3.90E-04  0.00000
    234.  42.735  4.94E-06  2.71E-05  0.00E+00  0.00E+00  0.00E+00  0.00E+00  4.94E-06  2.71E-05  4.00E-04  0.00000
    236.  42.373  5.11E-06  2.85E-05  0.00E+00  0.00E+00  0.00E+00  0.00E+00  5.11E-06  2.85E-05  4.10E-04  0.00000
    238.  42.017  5.19E-06  2.94E-05  0.00E+00  0.00E+00  0.00E+00  0.00E+00  5.19E-06  2.94E-05  4.20E-04  0.00000
    240.  41.667  5.23E-06  3.01E-05  0.00E+00  0.00E+00  0.00E+00  0.00E+00  5.23E-06  3.01E-05  4.31E-04  0.00000
    242.  41.322  5.21E-06  3.05E-05  0.00E+00  0.00E+00  0.00E+00  0.00E+00  5.21E-06  3.05E-05  4.41E-04  0.00000
    244.  40.984  4.80E-06  2.86E-05  0.00E+00  0.00E+00  0.00E+00  0.00E+00  4.80E-06  2.86E-05  4.51E-04  0.00000
    246.  40.650  4.48E-06  2.71E-05  0.00E+00  0.00E+00  0.00E+00  0.00E+00  4.48E-06  2.71E-05  4.60E-04  0.00000
    248.  40.323  4.54E-06  2.79E-05  0.00E+00  0.00E+00  0.00E+00  0.00E+00  4.54E-06  2.79E-05  4.69E-04  0.00000
    250.  40.000  5.10E-06  3.19E-05  0.00E+00  0.00E+00  0.00E+00  0.00E+00  5.10E-06  3.19E-05  4.79E-04  0.00000
    252.  39.683  4.99E-06  3.17E-05  0.00E+00  0.00E+00  0.00E+00  0.00E+00  4.99E-06  3.17E-05  4.89E-04  0.00000
    254.  39.370  4.46E-06  2.88E-05  0.00E+00  0.00E+00  0.00E+00  0.00E+00  4.46E-06  2.88E-05  4.98E-04  0.00000
    256.  39.063  5.22E-06  3.42E-05  0.00E+00  0.00E+00  0.00E+00  0.00E+00  5.22E-06  3.42E-05  5.08E-04  0.00000
    258.  38.760  5.58E-06  3.71E-05  0.00E+00  0.00E+00  0.00E+00  0.00E+00  5.58E-06  3.71E-05  5.20E-04  0.00000
    260.  38.462  5.74E-06  3.88E-05  0.00E+00  0.00E+00  0.00E+00  0.00E+00  5.74E-06  3.88E-05  5.31E-04  0.00000
    262.  38.168  5.77E-06  3.96E-05  0.00E+00  0.00E+00  0.00E+00  0.00E+00  5.77E-06  3.96E-05  5.43E-04  0.00000
    264.  37.879  5.75E-06  4.01E-05  0.00E+00  0.00E+00  0.00E+00  0.00E+00  5.75E-06  4.01E-05  5.54E-04  0.00000
    266.  37.594  5.33E-06  3.77E-05  0.00E+00  0.00E+00  0.00E+00  0.00E+00  5.33E-06  3.77E-05  5.65E-04  0.00000
    268.  37.313  5.78E-06  4.15E-05  0.00E+00  0.00E+00  0.00E+00  0.00E+00  5.78E-06  4.15E-05  5.76E-04  0.00000
    270.  37.037  6.03E-06  4.40E-05  0.00E+00  0.00E+00  0.00E+00  0.00E+00  6.03E-06  4.40E-05  5.88E-04  0.00000
    272.  36.765  5.98E-06  4.43E-05  0.00E+00  0.00E+00  0.00E+00  0.00E+00  5.98E-06  4.43E-05  6.00E-04  0.00000
    274.  36.496  5.95E-06  4.47E-05  0.00E+00  0.00E+00  0.00E+00  0.00E+00  5.95E-06  4.47E-05  6.12E-04  0.00000
    276.  36.232  5.40E-06  4.11E-05  0.00E+00  0.00E+00  0.00E+00  0.00E+00  5.40E-06  4.11E-05  6.23E-04  0.00000
    278.  35.971  5.03E-06  3.89E-05  0.00E+00  0.00E+00  0.00E+00  0.00E+00  5.03E-06  3.89E-05  6.33E-04  0.00000
    280.  35.714  5.22E-06  4.09E-05  0.00E+00  0.00E+00  0.00E+00  0.00E+00  5.22E-06  4.09E-05  6.44E-04  0.00000
    282.  35.461  5.19E-06  4.13E-05  0.00E+00  0.00E+00  0.00E+00  0.00E+00  5.19E-06  4.13E-05  6.54E-04  0.00000
    284.  35.211  5.95E-06  4.80E-05  0.00E+00  0.00E+00  0.00E+00  0.00E+00  5.95E-06  4.80E-05  6.66E-04  0.00000
    286.  34.965  6.21E-06  5.08E-05  0.00E+00  0.00E+00  0.00E+00  0.00E+00  6.21E-06  5.08E-05  6.78E-04  0.00000
    288.  34.722  5.90E-06  4.89E-05  0.00E+00  0.00E+00  0.00E+00  0.00E+00  5.90E-06  4.89E-05  6.90E-04  0.00000
    290.  34.483  5.65E-06  4.75E-05  0.00E+00  0.00E+00  0.00E+00  0.00E+00  5.65E-06  4.75E-05  7.01E-04  0.00000
    292.  34.247  6.37E-06  5.44E-05  0.00E+00  0.00E+00  0.00E+00  0.00E+00  6.37E-06  5.44E-05  7.14E-04  0.00000
    294.  34.014  6.63E-06  5.73E-05  0.00E+00  0.00E+00  0.00E+00  0.00E+00  6.63E-06  5.73E-05  7.27E-04  0.00000
    296.  33.784  6.60E-06  5.78E-05  0.00E+00  0.00E+00  0.00E+00  0.00E+00  6.60E-06  5.78E-05  7.41E-04  0.00000
    298.  33.557  6.41E-06  5.69E-05  0.00E+00  0.00E+00  0.00E+00  0.00E+00  6.41E-06  5.69E-05  7.53E-04  0.00000
1                                             RADIANCE(WATTS/CM2-STER-XXX)
0  FREQ   WAVLEN    PATH THERMAL      SURFACE EMISSION    SURFACE REFLECTED     TOTAL RADIANCE   INTEGRAL    TOTAL
  (CM-1) (MICRN)    (CM-1)   (MICRN)    (CM-1)   (MICRN)    (CM-1)   (MICRN)    (CM-1)   (MICRN)    (CM-1)   TRANS

    300.  33.333  6.34E-06  5.70E-05  0.00E+00  0.00E+00  0.00E+00  0.00E+00  6.34E-06  5.70E-05  7.66E-04  0.00000
    302.  33.113  5.54E-06  5.05E-05  0.00E+00  0.00E+00  0.00E+00  0.00E+00  5.54E-06  5.05E-05  7.77E-04  0.00000
    304.  32.895  5.85E-06  5.41E-05  0.00E+00  0.00E+00  0.00E+00  0.00E+00  5.85E-06  5.41E-05  7.89E-04  0.00000
    306.  32.680  6.65E-06  6.23E-05  0.00E+00  0.00E+00  0.00E+00  0.00E+00  6.65E-06  6.23E-05  8.02E-04  0.00000
    308.  32.468  6.86E-06  6.51E-05  0.00E+00  0.00E+00  0.00E+00  0.00E+00  6.86E-06  6.51E-05  8.16E-04  0.00000
    310.  32.258  6.97E-06  6.70E-05  0.00E+00  0.00E+00  0.00E+00  0.00E+00  6.97E-06  6.70E-05  8.30E-04  0.00000
    312.  32.051  7.04E-06  6.85E-05  0.00E+00  0.00E+00  0.00E+00  0.00E+00  7.04E-06  6.85E-05  8.44E-04  0.00000
    314.  31.847  6.68E-06  6.58E-05  0.00E+00  0.00E+00  0.00E+00  0.00E+00  6.68E-06  6.58E-05  8.57E-04  0.00000
    316.  31.646  6.64E-06  6.63E-05  0.00E+00  0.00E+00  0.00E+00  0.00E+00  6.64E-06  6.63E-05  8.71E-04  0.00000
    318.  31.447  7.26E-06  7.34E-05  0.00E+00  0.00E+00  0.00E+00  0.00E+00  7.26E-06  7.34E-05  8.85E-04  0.00000
    320.  31.250  7.19E-06  7.37E-05  0.00E+00  0.00E+00  0.00E+00  0.00E+00  7.19E-06  7.37E-05  8.99E-04  0.00000
    322.  31.056  6.82E-06  7.07E-05  0.00E+00  0.00E+00  0.00E+00  0.00E+00  6.82E-06  7.07E-05  9.13E-04  0.00000
    324.  30.864  6.00E-06  6.30E-05  0.00E+00  0.00E+00  0.00E+00  0.00E+00  6.00E-06  6.30E-05  9.25E-04  0.00000
    326.  30.675  6.79E-06  7.22E-05  0.00E+00  0.00E+00  0.00E+00  0.00E+00  6.79E-06  7.22E-05  9.39E-04  0.00000
    328.  30.488  6.12E-06  6.59E-05  0.00E+00  0.00E+00  0.00E+00  0.00E+00  6.12E-06  6.59E-05  9.51E-04  0.00000
    330.  30.303  7.21E-06  7.85E-05  0.00E+00  0.00E+00  0.00E+00  0.00E+00  7.21E-06  7.85E-05  9.65E-04  0.00000
    332.  30.120  7.47E-06  8.24E-05  0.00E+00  0.00E+00  0.00E+00  0.00E+00  7.47E-06  8.24E-05  9.80E-04  0.00000
    334.  29.940  6.87E-06  7.66E-05  0.00E+00  0.00E+00  0.00E+00  0.00E+00  6.87E-06  7.66E-05  9.94E-04  0.00000
    336.  29.762  6.66E-06  7.52E-05  0.00E+00  0.00E+00  0.00E+00  0.00E+00  6.66E-06  7.52E-05  1.01E-03  0.00000
    338.  29.586  7.63E-06  8.72E-05  0.00E+00  0.00E+00  0.00E+00  0.00E+00  7.63E-06  8.72E-05  1.02E-03  0.00000
    340.  29.412  7.19E-06  8.31E-05  0.00E+00  0.00E+00  0.00E+00  0.00E+00  7.19E-06  8.31E-05  1.04E-03  0.00000
    342.  29.240  7.20E-06  8.42E-05  0.00E+00  0.00E+00  0.00E+00  0.00E+00  7.20E-06  8.42E-05  1.05E-03  0.00000
    344.  29.070  7.53E-06  8.91E-05  0.00E+00  0.00E+00  0.00E+00  0.00E+00  7.53E-06  8.91E-05  1.07E-03  0.00000
    346.  28.902  7.64E-06  9.14E-05  0.00E+00  0.00E+00  0.00E+00  0.00E+00  7.64E-06  9.14E-05  1.08E-03  0.00000
    348.  28.736  7.57E-06  9.17E-05  0.00E+00  0.00E+00  0.00E+00  0.00E+00  7.57E-06  9.17E-05  1.10E-03  0.00000
    350.  28.571  6.80E-06  8.33E-05  0.00E+00  0.00E+00  0.00E+00  0.00E+00  6.80E-06  8.33E-05  1.11E-03  0.00000
    352.  28.409  6.77E-06  8.39E-05  0.00E+00  0.00E+00  0.00E+00  0.00E+00  6.77E-06  8.39E-05  1.12E-03  0.00000
    354.  28.249  6.83E-06  8.56E-05  0.00E+00  0.00E+00  0.00E+00  0.00E+00  6.83E-06  8.56E-05  1.14E-03  0.00000
    356.  28.090  7.09E-06  8.98E-05  0.00E+00  0.00E+00  0.00E+00  0.00E+00  7.09E-06  8.98E-05  1.15E-03  0.00000
    358.  27.933  7.05E-06  9.03E-05  0.00E+00  0.00E+00  0.00E+00  0.00E+00  7.05E-06  9.03E-05  1.17E-03  0.00000
    360.  27.778  8.16E-06  1.06E-04  0.00E+00  0.00E+00  0.00E+00  0.00E+00  8.16E-06  1.06E-04  1.18E-03  0.00000
    362.  27.624  8.37E-06  1.10E-04  0.00E+00  0.00E+00  0.00E+00  0.00E+00  8.37E-06  1.10E-04  1.20E-03  0.00000
    364.  27.473  8.51E-06  1.13E-04  0.00E+00  0.00E+00  0.00E+00  0.00E+00  8.51E-06  1.13E-04  1.22E-03  0.00000
    366.  27.322  8.64E-06  1.16E-04  0.00E+00  0.00E+00  0.00E+00  0.00E+00  8.64E-06  1.16E-04  1.23E-03  0.00000
    368.  27.174  8.29E-06  1.12E-04  0.00E+00  0.00E+00  0.00E+00  0.00E+00  8.29E-06  1.12E-04  1.25E-03  0.00000
    370.  27.027  7.45E-06  1.02E-04  0.00E+00  0.00E+00  0.00E+00  0.00E+00  7.45E-06  1.02E-04  1.26E-03  0.00000
    372.  26.882  8.38E-06  1.16E-04  0.00E+00  0.00E+00  0.00E+00  0.00E+00  8.38E-06  1.16E-04  1.28E-03  0.00000
    374.  26.738  7.37E-06  1.03E-04  0.00E+00  0.00E+00  0.00E+00  0.00E+00  7.37E-06  1.03E-04  1.30E-03  0.00000
    376.  26.596  7.34E-06  1.04E-04  0.00E+00  0.00E+00  0.00E+00  0.00E+00  7.34E-06  1.04E-04  1.31E-03  0.00000
    378.  26.455  8.45E-06  1.21E-04  0.00E+00  0.00E+00  0.00E+00  0.00E+00  8.45E-06  1.21E-04  1.33E-03  0.00000
    380.  26.316  8.79E-06  1.27E-04  6.14E-43  8.86E-42  0.00E+00  0.00E+00  8.79E-06  1.27E-04  1.35E-03  0.00000
    382.  26.178  8.82E-06  1.29E-04  6.25E-43  9.12E-42  0.00E+00  0.00E+00  8.82E-06  1.29E-04  1.36E-03  0.00000
    384.  26.042  7.78E-06  1.15E-04  0.00E+00  0.00E+00  0.00E+00  0.00E+00  7.78E-06  1.15E-04  1.38E-03  0.00000
    386.  25.907  7.73E-06  1.15E-04  0.00E+00  0.00E+00  0.00E+00  0.00E+00  7.73E-06  1.15E-04  1.39E-03  0.00000
    388.  25.773  9.11E-06  1.37E-04  1.15E-34  1.73E-33  0.00E+00  0.00E+00  9.11E-06  1.37E-04  1.41E-03  0.00000
    390.  25.641  9.25E-06  1.41E-04  3.26E-34  4.96E-33  0.00E+00  0.00E+00  9.25E-06  1.41E-04  1.43E-03  0.00000
    392.  25.510  9.19E-06  1.41E-04  3.04E-35  4.68E-34  0.00E+00  0.00E+00  9.19E-06  1.41E-04  1.45E-03  0.00000
    394.  25.381  8.18E-06  1.27E-04  0.00E+00  0.00E+00  0.00E+00  0.00E+00  8.18E-06  1.27E-04  1.47E-03  0.00000
    396.  25.253  7.53E-06  1.18E-04  0.00E+00  0.00E+00  0.00E+00  0.00E+00  7.53E-06  1.18E-04  1.48E-03  0.00000
    398.  25.126  7.39E-06  1.17E-04  0.00E+00  0.00E+00  0.00E+00  0.00E+00  7.39E-06  1.17E-04  1.50E-03  0.00000
1                                             RADIANCE(WATTS/CM2-STER-XXX)
0  FREQ   WAVLEN    PATH THERMAL      SURFACE EMISSION    SURFACE REFLECTED     TOTAL RADIANCE   INTEGRAL    TOTAL
  (CM-1) (MICRN)    (CM-1)   (MICRN)    (CM-1)   (MICRN)    (CM-1)   (MICRN)    (CM-1)   (MICRN)    (CM-1)   TRANS

    400.  25.000  7.94E-06  1.27E-04  0.00E+00  0.00E+00  0.00E+00  0.00E+00  7.94E-06  1.27E-04  1.51E-03  0.00000
    402.  24.876  9.33E-06  1.51E-04  1.47E-31  2.38E-30  0.00E+00  0.00E+00  9.33E-06  1.51E-04  1.53E-03  0.00000
    404.  24.752  9.61E-06  1.57E-04  7.12E-28  1.16E-26  0.00E+00  0.00E+00  9.61E-06  1.57E-04  1.55E-03  0.00000
    406.  24.631  9.73E-06  1.60E-04  4.17E-24  6.87E-23  0.00E+00  0.00E+00  9.73E-06  1.60E-04  1.57E-03  0.00000
    408.  24.510  9.94E-06  1.66E-04  6.17E-23  1.03E-21  0.00E+00  0.00E+00  9.94E-06  1.66E-04  1.59E-03  0.00000
    410.  24.390  9.98E-06  1.68E-04  7.28E-23  1.22E-21  0.00E+00  0.00E+00  9.98E-06  1.68E-04  1.61E-03  0.00000
    412.  24.272  9.98E-06  1.69E-04  4.11E-23  6.98E-22  0.00E+00  0.00E+00  9.98E-06  1.69E-04  1.63E-03  0.00000
    414.  24.155  9.75E-06  1.67E-04  6.00E-25  1.03E-23  0.00E+00  0.00E+00  9.75E-06  1.67E-04  1.65E-03  0.00000
    416.  24.038  9.22E-06  1.59E-04  6.86E-34  1.19E-32  0.00E+00  0.00E+00  9.22E-06  1.59E-04  1.67E-03  0.00000
    418.  23.923  7.57E-06  1.32E-04  0.00E+00  0.00E+00  0.00E+00  0.00E+00  7.57E-06  1.32E-04  1.68E-03  0.00000
    420.  23.810  7.73E-06  1.36E-04  0.00E+00  0.00E+00  0.00E+00  0.00E+00  7.73E-06  1.36E-04  1.70E-03  0.00000
    422.  23.697  8.85E-06  1.58E-04  3.12E-36  5.55E-35  0.00E+00  0.00E+00  8.85E-06  1.58E-04  1.71E-03  0.00000
    424.  23.585  8.96E-06  1.61E-04  1.67E-31  2.99E-30  0.00E+00  0.00E+00  8.96E-06  1.61E-04  1.73E-03  0.00000
    426.  23.474  9.10E-06  1.65E-04  2.21E-28  4.01E-27  0.00E+00  0.00E+00  9.10E-06  1.65E-04  1.75E-03  0.00000
    428.  23.364  1.02E-05  1.86E-04  5.43E-21  9.95E-20  0.00E+00  0.00E+00  1.02E-05  1.86E-04  1.77E-03  0.00000
    430.  23.256  9.75E-06  1.80E-04  7.12E-21  1.32E-19  0.00E+00  0.00E+00  9.75E-06  1.80E-04  1.79E-03  0.00000
    432.  23.148  9.55E-06  1.78E-04  2.36E-20  4.41E-19  0.00E+00  0.00E+00  9.55E-06  1.78E-04  1.81E-03  0.00000
    434.  23.041  1.01E-05  1.91E-04  1.95E-20  3.68E-19  0.00E+00  0.00E+00  1.01E-05  1.91E-04  1.83E-03  0.00000
    436.  22.936  9.44E-06  1.79E-04  6.64E-22  1.26E-20  0.00E+00  0.00E+00  9.44E-06  1.79E-04  1.85E-03  0.00000
    438.  22.831  1.04E-05  2.00E-04  3.86E-19  7.41E-18  0.00E+00  0.00E+00  1.04E-05  2.00E-04  1.87E-03  0.00000
    440.  22.727  1.03E-05  1.98E-04  3.13E-19  6.06E-18  0.00E+00  0.00E+00  1.03E-05  1.98E-04  1.89E-03  0.00000
    442.  22.624  8.49E-06  1.66E-04  1.43E-23  2.80E-22  0.00E+00  0.00E+00  8.49E-06  1.66E-04  1.91E-03  0.00000
    444.  22.523  9.42E-06  1.86E-04  3.56E-24  7.02E-23  0.00E+00  0.00E+00  9.42E-06  1.86E-04  1.93E-03  0.00000
    446.  22.422  9.78E-06  1.95E-04  1.29E-24  2.57E-23  0.00E+00  0.00E+00  9.78E-06  1.95E-04  1.95E-03  0.00000
    448.  22.321  1.04E-05  2.09E-04  2.38E-17  4.77E-16  0.00E+00  0.00E+00  1.04E-05  2.09E-04  1.97E-03  0.00000
    450.  22.222  1.07E-05  2.16E-04  2.53E-17  5.12E-16  0.00E+00  0.00E+00  1.07E-05  2.16E-04  1.99E-03  0.00000
    452.  22.124  9.74E-06  1.99E-04  7.06E-20  1.44E-18  0.00E+00  0.00E+00  9.74E-06  1.99E-04  2.01E-03  0.00000
    454.  22.026  9.99E-06  2.06E-04  6.58E-20  1.36E-18  0.00E+00  0.00E+00  9.99E-06  2.06E-04  2.03E-03  0.00000
    456.  21.930  9.34E-06  1.94E-04  5.77E-26  1.20E-24  0.00E+00  0.00E+00  9.34E-06  1.94E-04  2.05E-03  0.00000
    458.  21.834  8.03E-06  1.68E-04  2.08E-25  4.36E-24  0.00E+00  0.00E+00  8.03E-06  1.68E-04  2.06E-03  0.00000
    460.  21.739  1.00E-05  2.12E-04  7.12E-22  1.51E-20  0.00E+00  0.00E+00  1.00E-05  2.12E-04  2.08E-03  0.00000
    462.  21.645  1.05E-05  2.25E-04  1.69E-16  3.62E-15  0.00E+00  0.00E+00  1.05E-05  2.25E-04  2.10E-03  0.00000
    464.  21.552  1.11E-05  2.38E-04  1.31E-14  2.83E-13  0.00E+00  0.00E+00  1.11E-05  2.38E-04  2.13E-03  0.00000
    466.  21.459  1.09E-05  2.36E-04  1.01E-14  2.19E-13  0.00E+00  0.00E+00  1.09E-05  2.36E-04  2.15E-03  0.00000
    468.  21.368  9.89E-06  2.17E-04  5.40E-20  1.18E-18  0.00E+00  0.00E+00  9.89E-06  2.17E-04  2.17E-03  0.00000
    470.  21.277  1.04E-05  2.29E-04  9.91E-20  2.19E-18  0.00E+00  0.00E+00  1.04E-05  2.29E-04  2.19E-03  0.00000
    472.  21.186  8.47E-06  1.89E-04  8.91E-30  1.98E-28  0.00E+00  0.00E+00  8.47E-06  1.89E-04  2.20E-03  0.00000
    474.  21.097  9.72E-06  2.18E-04  3.25E-18  7.31E-17  0.00E+00  0.00E+00  9.72E-06  2.18E-04  2.22E-03  0.00000
    476.  21.008  1.08E-05  2.44E-04  3.88E-16  8.78E-15  0.00E+00  0.00E+00  1.08E-05  2.44E-04  2.25E-03  0.00000
    478.  20.921  1.15E-05  2.63E-04  9.91E-13  2.26E-11  0.00E+00  0.00E+00  1.15E-05  2.63E-04  2.27E-03  0.00000
    480.  20.833  1.12E-05  2.59E-04  7.06E-13  1.63E-11  0.00E+00  0.00E+00  1.12E-05  2.59E-04  2.29E-03  0.00000
    482.  20.747  1.06E-05  2.47E-04  2.94E-15  6.83E-14  0.00E+00  0.00E+00  1.06E-05  2.47E-04  2.31E-03  0.00000
    484.  20.661  9.27E-06  2.17E-04  3.31E-14  7.75E-13  0.00E+00  0.00E+00  9.27E-06  2.17E-04  2.33E-03  0.00000
    486.  20.576  1.06E-05  2.51E-04  7.69E-16  1.82E-14  0.00E+00  0.00E+00  1.06E-05  2.51E-04  2.35E-03  0.00000
    488.  20.492  1.17E-05  2.78E-04  5.16E-12  1.23E-10  0.00E+00  0.00E+00  1.17E-05  2.78E-04  2.38E-03  0.00000
    490.  20.408  1.15E-05  2.75E-04  2.67E-12  6.42E-11  0.00E+00  0.00E+00  1.15E-05  2.75E-04  2.40E-03  0.00000
    492.  20.325  9.93E-06  2.40E-04  2.03E-16  4.91E-15  0.00E+00  0.00E+00  9.93E-06  2.40E-04  2.42E-03  0.00000
    494.  20.243  1.12E-05  2.73E-04  2.52E-12  6.14E-11  0.00E+00  0.00E+00  1.12E-05  2.73E-04  2.44E-03  0.00000
    496.  20.161  1.20E-05  2.95E-04  7.95E-11  1.96E-09  0.00E+00  0.00E+00  1.20E-05  2.95E-04  2.46E-03  0.00001
    498.  20.080  1.20E-05  2.98E-04  8.53E-11  2.12E-09  0.00E+00  0.00E+00  1.20E-05  2.98E-04  2.49E-03  0.00001
1                                             RADIANCE(WATTS/CM2-STER-XXX)
0  FREQ   WAVLEN    PATH THERMAL      SURFACE EMISSION    SURFACE REFLECTED     TOTAL RADIANCE   INTEGRAL    TOTAL
  (CM-1) (MICRN)    (CM-1)   (MICRN)    (CM-1)   (MICRN)    (CM-1)   (MICRN)    (CM-1)   (MICRN)    (CM-1)   TRANS

    500.  20.000  1.14E-05  2.85E-04  6.12E-12  1.53E-10  0.00E+00  0.00E+00  1.14E-05  2.85E-04  2.51E-03  0.00000
    502.  19.920  9.51E-06  2.40E-04  4.26E-15  1.07E-13  0.00E+00  0.00E+00  9.51E-06  2.40E-04  2.53E-03  0.00000
    504.  19.841  1.06E-05  2.70E-04  1.07E-16  2.71E-15  0.00E+00  0.00E+00  1.06E-05  2.70E-04  2.55E-03  0.00000
    506.  19.763  9.92E-06  2.54E-04  1.10E-13  2.82E-12  0.00E+00  0.00E+00  9.92E-06  2.54E-04  2.57E-03  0.00000
    508.  19.685  1.06E-05  2.73E-04  1.18E-12  3.04E-11  0.00E+00  0.00E+00  1.06E-05  2.73E-04  2.59E-03  0.00000
    510.  19.608  1.12E-05  2.90E-04  1.10E-12  2.86E-11  0.00E+00  0.00E+00  1.12E-05  2.90E-04  2.61E-03  0.00000
    512.  19.531  1.14E-05  2.98E-04  2.88E-11  7.56E-10  0.00E+00  0.00E+00  1.14E-05  2.98E-04  2.64E-03  0.00000
    514.  19.455  1.16E-05  3.06E-04  2.73E-11  7.21E-10  0.00E+00  0.00E+00  1.16E-05  3.06E-04  2.66E-03  0.00000
    516.  19.380  1.01E-05  2.70E-04  1.90E-15  5.06E-14  0.00E+00  0.00E+00  1.01E-05  2.70E-04  2.68E-03  0.00000
    518.  19.305  9.47E-06  2.54E-04  4.34E-21  1.16E-19  0.00E+00  0.00E+00  9.47E-06  2.54E-04  2.70E-03  0.00000
    520.  19.231  9.99E-06  2.70E-04  1.31E-14  3.53E-13  0.00E+00  0.00E+00  9.99E-06  2.70E-04  2.72E-03  0.00000
    522.  19.157  1.19E-05  3.24E-04  2.41E-11  6.57E-10  0.00E+00  0.00E+00  1.19E-05  3.24E-04  2.74E-03  0.00000
    524.  19.084  1.13E-05  3.10E-04  9.46E-12  2.60E-10  0.00E+00  0.00E+00  1.13E-05  3.10E-04  2.77E-03  0.00000
    526.  19.011  9.72E-06  2.69E-04  3.34E-13  9.25E-12  0.00E+00  0.00E+00  9.72E-06  2.69E-04  2.79E-03  0.00000
    528.  18.939  1.19E-05  3.32E-04  1.69E-10  4.70E-09  0.00E+00  0.00E+00  1.19E-05  3.32E-04  2.81E-03  0.00001
    530.  18.868  1.24E-05  3.48E-04  3.11E-09  8.73E-08  0.00E+00  0.00E+00  1.24E-05  3.48E-04  2.83E-03  0.00021
    532.  18.797  1.25E-05  3.55E-04  5.41E-09  1.53E-07  0.00E+00  0.00E+00  1.25E-05  3.55E-04  2.86E-03  0.00037
    534.  18.727  1.21E-05  3.44E-04  9.36E-10  2.67E-08  0.00E+00  0.00E+00  1.21E-05  3.44E-04  2.88E-03  0.00006
    536.  18.657  1.08E-05  3.11E-04  1.35E-10  3.89E-09  0.00E+00  0.00E+00  1.08E-05  3.11E-04  2.91E-03  0.00001
    538.  18.587  1.22E-05  3.53E-04  3.55E-09  1.03E-07  0.00E+00  0.00E+00  1.22E-05  3.53E-04  2.93E-03  0.00024
    540.  18.519  1.20E-05  3.50E-04  3.72E-09  1.09E-07  0.00E+00  0.00E+00  1.20E-05  3.50E-04  2.95E-03  0.00025
    542.  18.450  1.19E-05  3.50E-04  1.32E-09  3.89E-08  0.00E+00  0.00E+00  1.19E-05  3.50E-04  2.98E-03  0.00009
    544.  18.382  1.16E-05  3.42E-04  1.06E-09  3.14E-08  0.00E+00  0.00E+00  1.16E-05  3.42E-04  3.00E-03  0.00007
    546.  18.315  9.92E-06  2.96E-04  5.30E-13  1.58E-11  0.00E+00  0.00E+00  9.92E-06  2.96E-04  3.02E-03  0.00000
    548.  18.248  1.11E-05  3.32E-04  1.01E-10  3.02E-09  0.00E+00  0.00E+00  1.11E-05  3.32E-04  3.04E-03  0.00001
    550.  18.182  1.12E-05  3.39E-04  1.04E-10  3.15E-09  0.00E+00  0.00E+00  1.12E-05  3.39E-04  3.06E-03  0.00001
    552.  18.116  1.22E-05  3.72E-04  5.15E-09  1.57E-07  0.00E+00  0.00E+00  1.22E-05  3.72E-04  3.09E-03  0.00034
    554.  18.051  1.17E-05  3.59E-04  2.96E-09  9.10E-08  0.00E+00  0.00E+00  1.17E-05  3.60E-04  3.11E-03  0.00020
    556.  17.986  1.18E-05  3.66E-04  5.62E-09  1.74E-07  0.00E+00  0.00E+00  1.19E-05  3.66E-04  3.14E-03  0.00038
    558.  17.921  1.24E-05  3.87E-04  1.47E-08  4.57E-07  0.00E+00  0.00E+00  1.24E-05  3.87E-04  3.16E-03  0.00098
    560.  17.857  1.27E-05  3.97E-04  3.16E-08  9.90E-07  0.00E+00  0.00E+00  1.27E-05  3.98E-04  3.19E-03  0.00211
    562.  17.794  1.22E-05  3.84E-04  2.15E-08  6.78E-07  0.00E+00  0.00E+00  1.22E-05  3.84E-04  3.21E-03  0.00143
    564.  17.730  1.17E-05  3.72E-04  2.81E-09  8.94E-08  0.00E+00  0.00E+00  1.17E-05  3.72E-04  3.23E-03  0.00019
    566.  17.668  1.15E-05  3.69E-04  2.80E-09  8.97E-08  0.00E+00  0.00E+00  1.15E-05  3.69E-04  3.26E-03  0.00019
    568.  17.606  1.01E-05  3.26E-04  1.58E-11  5.08E-10  0.00E+00  0.00E+00  1.01E-05  3.26E-04  3.28E-03  0.00000
    570.  17.544  1.05E-05  3.40E-04  3.28E-11  1.07E-09  0.00E+00  0.00E+00  1.05E-05  3.40E-04  3.30E-03  0.00000
    572.  17.483  1.20E-05  3.92E-04  5.08E-09  1.66E-07  0.00E+00  0.00E+00  1.20E-05  3.92E-04  3.32E-03  0.00034
    574.  17.422  1.23E-05  4.06E-04  1.31E-08  4.33E-07  0.00E+00  0.00E+00  1.23E-05  4.06E-04  3.35E-03  0.00088
    576.  17.361  1.04E-05  3.45E-04  5.98E-11  1.98E-09  0.00E+00  0.00E+00  1.04E-05  3.45E-04  3.37E-03  0.00000
    578.  17.301  1.19E-05  3.99E-04  4.69E-09  1.57E-07  0.00E+00  0.00E+00  1.19E-05  3.99E-04  3.39E-03  0.00031
    580.  17.241  1.09E-05  3.68E-04  2.19E-09  7.37E-08  0.00E+00  0.00E+00  1.09E-05  3.68E-04  3.41E-03  0.00015
    582.  17.182  1.11E-05  3.77E-04  2.86E-09  9.70E-08  0.00E+00  0.00E+00  1.11E-05  3.78E-04  3.44E-03  0.00019
    584.  17.123  1.18E-05  4.04E-04  3.07E-09  1.05E-07  0.00E+00  0.00E+00  1.18E-05  4.04E-04  3.46E-03  0.00020
    586.  17.065  1.22E-05  4.18E-04  2.48E-08  8.50E-07  0.00E+00  0.00E+00  1.22E-05  4.19E-04  3.48E-03  0.00165
    588.  17.007  1.15E-05  3.97E-04  4.83E-08  1.67E-06  0.00E+00  0.00E+00  1.15E-05  3.98E-04  3.51E-03  0.00322
    590.  16.949  1.02E-05  3.56E-04  2.13E-09  7.41E-08  0.00E+00  0.00E+00  1.02E-05  3.56E-04  3.53E-03  0.00014
    592.  16.892  9.68E-06  3.39E-04  9.51E-13  3.33E-11  0.00E+00  0.00E+00  9.68E-06  3.39E-04  3.55E-03  0.00000
    594.  16.835  1.11E-05  3.93E-04  1.33E-10  4.68E-09  0.00E+00  0.00E+00  1.11E-05  3.93E-04  3.57E-03  0.00001
    596.  16.779  1.19E-05  4.23E-04  3.76E-08  1.33E-06  0.00E+00  0.00E+00  1.19E-05  4.24E-04  3.59E-03  0.00251
    598.  16.722  1.25E-05  4.47E-04  6.64E-08  2.38E-06  0.00E+00  0.00E+00  1.26E-05  4.50E-04  3.62E-03  0.00443
1                                             RADIANCE(WATTS/CM2-STER-XXX)
0  FREQ   WAVLEN    PATH THERMAL      SURFACE EMISSION    SURFACE REFLECTED     TOTAL RADIANCE   INTEGRAL    TOTAL
  (CM-1) (MICRN)    (CM-1)   (MICRN)    (CM-1)   (MICRN)    (CM-1)   (MICRN)    (CM-1)   (MICRN)    (CM-1)   TRANS

    600.  16.667  1.12E-05  4.05E-04  9.13E-09  3.29E-07  0.00E+00  0.00E+00  1.13E-05  4.05E-04  3.64E-03  0.00061
    602.  16.611  1.24E-05  4.50E-04  8.44E-08  3.06E-06  0.00E+00  0.00E+00  1.25E-05  4.53E-04  3.67E-03  0.00563
    604.  16.556  1.19E-05  4.35E-04  4.80E-08  1.75E-06  0.00E+00  0.00E+00  1.20E-05  4.37E-04  3.69E-03  0.00320
    606.  16.502  1.26E-05  4.62E-04  2.11E-07  7.74E-06  0.00E+00  0.00E+00  1.28E-05  4.70E-04  3.72E-03  0.01408
    608.  16.447  1.26E-05  4.67E-04  2.48E-07  9.15E-06  0.00E+00  0.00E+00  1.29E-05  4.76E-04  3.74E-03  0.01654
    610.  16.393  1.26E-05  4.70E-04  2.47E-07  9.18E-06  0.00E+00  0.00E+00  1.29E-05  4.79E-04  3.77E-03  0.01647
    612.  16.340  1.22E-05  4.56E-04  1.26E-07  4.71E-06  0.00E+00  0.00E+00  1.23E-05  4.61E-04  3.79E-03  0.00841
    614.  16.287  1.21E-05  4.57E-04  6.03E-08  2.27E-06  0.00E+00  0.00E+00  1.22E-05  4.59E-04  3.82E-03  0.00403
    616.  16.234  1.06E-05  4.02E-04  2.70E-09  1.03E-07  0.00E+00  0.00E+00  1.06E-05  4.02E-04  3.84E-03  0.00018
    618.  16.181  1.23E-05  4.69E-04  9.08E-08  3.47E-06  0.00E+00  0.00E+00  1.24E-05  4.73E-04  3.86E-03  0.00607
    620.  16.129  1.22E-05  4.69E-04  4.97E-08  1.91E-06  0.00E+00  0.00E+00  1.23E-05  4.71E-04  3.89E-03  0.00333
    622.  16.077  1.24E-05  4.79E-04  1.62E-07  6.29E-06  0.00E+00  0.00E+00  1.26E-05  4.86E-04  3.91E-03  0.01088
    624.  16.026  1.19E-05  4.63E-04  7.40E-08  2.88E-06  0.00E+00  0.00E+00  1.20E-05  4.66E-04  3.94E-03  0.00496
    626.  15.974  1.11E-05  4.36E-04  2.92E-08  1.14E-06  0.00E+00  0.00E+00  1.12E-05  4.38E-04  3.96E-03  0.00196
    628.  15.924  1.27E-05  5.02E-04  3.70E-07  1.46E-05  0.00E+00  0.00E+00  1.31E-05  5.16E-04  3.98E-03  0.02481
    630.  15.873  1.27E-05  5.03E-04  5.22E-07  2.07E-05  0.00E+00  0.00E+00  1.32E-05  5.24E-04  4.01E-03  0.03504
    632.  15.823  1.23E-05  4.90E-04  2.61E-07  1.04E-05  0.00E+00  0.00E+00  1.25E-05  5.01E-04  4.04E-03  0.01749
    634.  15.773  1.15E-05  4.62E-04  1.36E-08  5.48E-07  0.00E+00  0.00E+00  1.15E-05  4.63E-04  4.06E-03  0.00092
    636.  15.723  1.14E-05  4.63E-04  1.22E-08  4.92E-07  0.00E+00  0.00E+00  1.15E-05  4.63E-04  4.08E-03  0.00082
    638.  15.674  1.14E-05  4.64E-04  1.92E-08  7.80E-07  0.00E+00  0.00E+00  1.14E-05  4.65E-04  4.10E-03  0.00129
    640.  15.625  1.17E-05  4.81E-04  1.07E-07  4.40E-06  0.00E+00  0.00E+00  1.18E-05  4.85E-04  4.13E-03  0.00724
    642.  15.576  1.25E-05  5.13E-04  2.79E-07  1.15E-05  0.00E+00  0.00E+00  1.27E-05  5.25E-04  4.15E-03  0.01878
    644.  15.528  1.16E-05  4.83E-04  9.61E-08  3.99E-06  0.00E+00  0.00E+00  1.17E-05  4.87E-04  4.18E-03  0.00648
    646.  15.480  1.21E-05  5.05E-04  3.48E-07  1.45E-05  0.00E+00  0.00E+00  1.25E-05  5.20E-04  4.20E-03  0.02345
    648.  15.432  1.23E-05  5.17E-04  1.02E-06  4.30E-05  0.00E+00  0.00E+00  1.33E-05  5.60E-04  4.23E-03  0.06913
    650.  15.385  1.23E-05  5.21E-04  9.41E-07  3.98E-05  0.00E+00  0.00E+00  1.33E-05  5.61E-04  4.25E-03  0.06360
    652.  15.337  1.21E-05  5.13E-04  5.16E-07  2.20E-05  0.00E+00  0.00E+00  1.26E-05  5.35E-04  4.28E-03  0.03492
    654.  15.291  1.22E-05  5.21E-04  1.16E-06  4.95E-05  0.00E+00  0.00E+00  1.33E-05  5.71E-04  4.31E-03  0.07826
    656.  15.244  1.21E-05  5.23E-04  1.15E-06  4.96E-05  0.00E+00  0.00E+00  1.33E-05  5.72E-04  4.33E-03  0.07804
    658.  15.198  1.17E-05  5.07E-04  4.24E-07  1.83E-05  0.00E+00  0.00E+00  1.21E-05  5.26E-04  4.36E-03  0.02871
    660.  15.152  1.14E-05  4.98E-04  1.58E-07  6.88E-06  0.00E+00  0.00E+00  1.16E-05  5.05E-04  4.38E-03  0.01072
    662.  15.106  1.21E-05  5.29E-04  3.70E-07  1.62E-05  0.00E+00  0.00E+00  1.24E-05  5.45E-04  4.41E-03  0.02516
    664.  15.060  1.18E-05  5.21E-04  9.24E-07  4.07E-05  0.00E+00  0.00E+00  1.28E-05  5.62E-04  4.43E-03  0.06283
    666.  15.015  1.20E-05  5.32E-04  1.18E-06  5.24E-05  0.00E+00  0.00E+00  1.32E-05  5.84E-04  4.46E-03  0.08043
    668.  14.970  1.16E-05  5.20E-04  2.62E-07  1.17E-05  0.00E+00  0.00E+00  1.19E-05  5.31E-04  4.48E-03  0.01785
    670.  14.925  1.16E-05  5.19E-04  2.45E-07  1.10E-05  0.00E+00  0.00E+00  1.18E-05  5.30E-04  4.50E-03  0.01672
    672.  14.881  1.19E-05  5.37E-04  5.47E-07  2.47E-05  0.00E+00  0.00E+00  1.24E-05  5.62E-04  4.53E-03  0.03738
    674.  14.837  1.17E-05  5.34E-04  1.05E-06  4.75E-05  0.00E+00  0.00E+00  1.28E-05  5.81E-04  4.56E-03  0.07152
    676.  14.793  1.16E-05  5.31E-04  1.67E-06  7.63E-05  0.00E+00  0.00E+00  1.33E-05  6.07E-04  4.58E-03  0.11424
    678.  14.749  1.18E-05  5.42E-04  6.83E-07  3.14E-05  0.00E+00  0.00E+00  1.25E-05  5.74E-04  4.61E-03  0.04679
    680.  14.706  1.15E-05  5.30E-04  1.25E-06  5.76E-05  0.00E+00  0.00E+00  1.27E-05  5.88E-04  4.63E-03  0.08549
    682.  14.663  1.14E-05  5.30E-04  1.85E-06  8.60E-05  0.00E+00  0.00E+00  1.33E-05  6.16E-04  4.66E-03  0.12701
    684.  14.620  1.13E-05  5.31E-04  1.87E-06  8.76E-05  0.00E+00  0.00E+00  1.32E-05  6.18E-04  4.69E-03  0.12868
    686.  14.577  1.16E-05  5.47E-04  1.19E-06  5.60E-05  0.00E+00  0.00E+00  1.28E-05  6.03E-04  4.71E-03  0.08188
    688.  14.535  1.09E-05  5.16E-04  5.60E-08  2.65E-06  0.00E+00  0.00E+00  1.10E-05  5.18E-04  4.73E-03  0.00386
    690.  14.493  1.14E-05  5.43E-04  2.56E-07  1.22E-05  0.00E+00  0.00E+00  1.17E-05  5.55E-04  4.76E-03  0.01767
    692.  14.451  1.17E-05  5.60E-04  1.08E-06  5.17E-05  0.00E+00  0.00E+00  1.28E-05  6.12E-04  4.78E-03  0.07452
    694.  14.409  1.12E-05  5.40E-04  1.76E-07  8.45E-06  0.00E+00  0.00E+00  1.14E-05  5.49E-04  4.80E-03  0.01214
    696.  14.368  1.13E-05  5.47E-04  9.69E-08  4.69E-06  0.00E+00  0.00E+00  1.14E-05  5.52E-04  4.83E-03  0.00671
    698.  14.327  1.10E-05  5.38E-04  3.41E-07  1.66E-05  0.00E+00  0.00E+00  1.14E-05  5.55E-04  4.85E-03  0.02367
1                                             RADIANCE(WATTS/CM2-STER-XXX)
0  FREQ   WAVLEN    PATH THERMAL      SURFACE EMISSION    SURFACE REFLECTED     TOTAL RADIANCE   INTEGRAL    TOTAL
  (CM-1) (MICRN)    (CM-1)   (MICRN)    (CM-1)   (MICRN)    (CM-1)   (MICRN)    (CM-1)   (MICRN)    (CM-1)   TRANS

    700.  14.286  1.12E-05  5.51E-04  1.83E-06  8.99E-05  0.00E+00  0.00E+00  1.31E-05  6.41E-04  4.88E-03  0.12743
    702.  14.245  1.13E-05  5.56E-04  1.72E-06  8.48E-05  0.00E+00  0.00E+00  1.30E-05  6.41E-04  4.90E-03  0.11963
    704.  14.205  1.11E-05  5.50E-04  3.41E-07  1.69E-05  0.00E+00  0.00E+00  1.14E-05  5.67E-04  4.93E-03  0.02374
    706.  14.164  1.10E-05  5.47E-04  5.41E-08  2.69E-06  0.00E+00  0.00E+00  1.10E-05  5.50E-04  4.95E-03  0.00377
    708.  14.124  1.13E-05  5.65E-04  7.00E-07  3.51E-05  0.00E+00  0.00E+00  1.20E-05  6.00E-04  4.97E-03  0.04891
    710.  14.085  1.07E-05  5.41E-04  2.26E-06  1.14E-04  0.00E+00  0.00E+00  1.30E-05  6.55E-04  5.00E-03  0.15814
    712.  14.045  1.08E-05  5.50E-04  1.71E-06  8.64E-05  0.00E+00  0.00E+00  1.25E-05  6.36E-04  5.02E-03  0.11943
    714.  14.006  1.10E-05  5.62E-04  7.73E-07  3.94E-05  0.00E+00  0.00E+00  1.18E-05  6.01E-04  5.05E-03  0.05424
    716.  13.966  1.04E-05  5.33E-04  2.60E-06  1.33E-04  0.00E+00  0.00E+00  1.30E-05  6.66E-04  5.07E-03  0.18291
    718.  13.928  1.05E-05  5.39E-04  2.40E-06  1.24E-04  0.00E+00  0.00E+00  1.29E-05  6.63E-04  5.10E-03  0.16908
    720.  13.889  1.04E-05  5.38E-04  2.49E-06  1.29E-04  0.00E+00  0.00E+00  1.29E-05  6.68E-04  5.12E-03  0.17583
    722.  13.850  1.03E-05  5.37E-04  2.58E-06  1.35E-04  0.00E+00  0.00E+00  1.29E-05  6.72E-04  5.15E-03  0.18233
    724.  13.812  9.94E-06  5.21E-04  3.06E-06  1.61E-04  0.00E+00  0.00E+00  1.30E-05  6.82E-04  5.17E-03  0.21660
    726.  13.774  9.98E-06  5.26E-04  3.05E-06  1.61E-04  0.00E+00  0.00E+00  1.30E-05  6.87E-04  5.20E-03  0.21598
    728.  13.736  1.02E-05  5.42E-04  2.26E-06  1.20E-04  0.00E+00  0.00E+00  1.25E-05  6.62E-04  5.23E-03  0.16059
    730.  13.699  1.10E-05  5.84E-04  6.81E-07  3.63E-05  0.00E+00  0.00E+00  1.16E-05  6.20E-04  5.25E-03  0.04841
    732.  13.661  1.02E-05  5.44E-04  2.28E-06  1.22E-04  0.00E+00  0.00E+00  1.24E-05  6.66E-04  5.27E-03  0.16228
    734.  13.624  9.81E-06  5.29E-04  3.15E-06  1.70E-04  0.00E+00  0.00E+00  1.30E-05  6.98E-04  5.30E-03  0.22479
    736.  13.587  9.68E-06  5.24E-04  3.25E-06  1.76E-04  0.00E+00  0.00E+00  1.29E-05  7.01E-04  5.33E-03  0.23247
    738.  13.550  9.67E-06  5.27E-04  3.26E-06  1.78E-04  0.00E+00  0.00E+00  1.29E-05  7.04E-04  5.35E-03  0.23338
    740.  13.514  1.06E-05  5.83E-04  1.57E-06  8.62E-05  0.00E+00  0.00E+00  1.22E-05  6.69E-04  5.38E-03  0.11280
    742.  13.477  1.07E-05  5.90E-04  9.24E-07  5.09E-05  0.00E+00  0.00E+00  1.16E-05  6.41E-04  5.40E-03  0.06640
    744.  13.441  1.07E-05  5.94E-04  1.18E-06  6.54E-05  0.00E+00  0.00E+00  1.19E-05  6.59E-04  5.42E-03  0.08495
    746.  13.405  9.93E-06  5.53E-04  2.51E-06  1.40E-04  0.00E+00  0.00E+00  1.24E-05  6.92E-04  5.45E-03  0.18104
    748.  13.369  1.01E-05  5.68E-04  1.84E-06  1.03E-04  0.00E+00  0.00E+00  1.20E-05  6.70E-04  5.47E-03  0.13265
    750.  13.333  9.66E-06  5.43E-04  3.05E-06  1.72E-04  0.00E+00  0.00E+00  1.27E-05  7.15E-04  5.50E-03  0.22095
    752.  13.298  1.00E-05  5.68E-04  2.34E-06  1.32E-04  0.00E+00  0.00E+00  1.24E-05  7.00E-04  5.52E-03  0.16942
    754.  13.263  1.04E-05  5.93E-04  1.33E-06  7.57E-05  0.00E+00  0.00E+00  1.18E-05  6.69E-04  5.55E-03  0.09660
    756.  13.228  9.91E-06  5.66E-04  2.22E-06  1.27E-04  0.00E+00  0.00E+00  1.21E-05  6.93E-04  5.57E-03  0.16150
    758.  13.193  8.99E-06  5.17E-04  3.78E-06  2.17E-04  0.00E+00  0.00E+00  1.28E-05  7.34E-04  5.60E-03  0.27556
    760.  13.158  9.25E-06  5.34E-04  3.41E-06  1.97E-04  0.00E+00  0.00E+00  1.27E-05  7.31E-04  5.62E-03  0.24880
    762.  13.123  8.98E-06  5.21E-04  3.73E-06  2.16E-04  0.00E+00  0.00E+00  1.27E-05  7.38E-04  5.65E-03  0.27273
    764.  13.089  8.76E-06  5.11E-04  3.97E-06  2.32E-04  0.00E+00  0.00E+00  1.27E-05  7.43E-04  5.67E-03  0.29138
    766.  13.055  8.86E-06  5.20E-04  3.80E-06  2.23E-04  0.00E+00  0.00E+00  1.27E-05  7.43E-04  5.70E-03  0.27901
    768.  13.021  9.25E-06  5.46E-04  3.13E-06  1.84E-04  0.00E+00  0.00E+00  1.24E-05  7.30E-04  5.72E-03  0.23023
    770.  12.987  9.57E-06  5.67E-04  2.50E-06  1.48E-04  0.00E+00  0.00E+00  1.21E-05  7.16E-04  5.75E-03  0.18455
    772.  12.953  8.66E-06  5.16E-04  3.96E-06  2.36E-04  0.00E+00  0.00E+00  1.26E-05  7.52E-04  5.77E-03  0.29291
    774.  12.920  8.81E-06  5.28E-04  3.75E-06  2.25E-04  0.00E+00  0.00E+00  1.26E-05  7.52E-04  5.80E-03  0.27789
    776.  12.887  1.00E-05  6.03E-04  1.51E-06  9.07E-05  0.00E+00  0.00E+00  1.15E-05  6.94E-04  5.82E-03  0.11177
    778.  12.853  9.36E-06  5.67E-04  2.58E-06  1.56E-04  0.00E+00  0.00E+00  1.19E-05  7.23E-04  5.84E-03  0.19167
    780.  12.821  8.91E-06  5.42E-04  3.38E-06  2.06E-04  0.00E+00  0.00E+00  1.23E-05  7.48E-04  5.87E-03  0.25208
    782.  12.788  8.51E-06  5.20E-04  3.97E-06  2.43E-04  0.00E+00  0.00E+00  1.25E-05  7.63E-04  5.89E-03  0.29682
    784.  12.755  9.65E-06  5.93E-04  1.65E-06  1.01E-04  0.00E+00  0.00E+00  1.13E-05  6.95E-04  5.92E-03  0.12356
    786.  12.723  8.79E-06  5.43E-04  3.54E-06  2.18E-04  0.00E+00  0.00E+00  1.23E-05  7.61E-04  5.94E-03  0.26536
    788.  12.690  8.15E-06  5.06E-04  4.30E-06  2.67E-04  0.00E+00  0.00E+00  1.24E-05  7.73E-04  5.97E-03  0.32301
    790.  12.658  8.02E-06  5.01E-04  4.41E-06  2.75E-04  0.00E+00  0.00E+00  1.24E-05  7.76E-04  5.99E-03  0.33249
    792.  12.626  8.52E-06  5.34E-04  3.72E-06  2.33E-04  0.00E+00  0.00E+00  1.22E-05  7.68E-04  6.01E-03  0.28117
    794.  12.594  9.59E-06  6.04E-04  2.00E-06  1.26E-04  0.00E+00  0.00E+00  1.16E-05  7.30E-04  6.04E-03  0.15110
    796.  12.563  9.49E-06  6.01E-04  1.59E-06  1.01E-04  0.00E+00  0.00E+00  1.11E-05  7.02E-04  6.06E-03  0.12101
    798.  12.531  9.69E-06  6.17E-04  1.34E-06  8.52E-05  0.00E+00  0.00E+00  1.10E-05  7.02E-04  6.08E-03  0.10167
1                                             RADIANCE(WATTS/CM2-STER-XXX)
0  FREQ   WAVLEN    PATH THERMAL      SURFACE EMISSION    SURFACE REFLECTED     TOTAL RADIANCE   INTEGRAL    TOTAL
  (CM-1) (MICRN)    (CM-1)   (MICRN)    (CM-1)   (MICRN)    (CM-1)   (MICRN)    (CM-1)   (MICRN)    (CM-1)   TRANS

    800.  12.500  8.60E-06  5.50E-04  2.93E-06  1.88E-04  0.00E+00  0.00E+00  1.15E-05  7.38E-04  6.10E-03  0.22346
    802.  12.469  8.45E-06  5.44E-04  3.58E-06  2.30E-04  0.00E+00  0.00E+00  1.20E-05  7.74E-04  6.13E-03  0.27330
    804.  12.438  9.03E-06  5.84E-04  2.45E-06  1.58E-04  0.00E+00  0.00E+00  1.15E-05  7.43E-04  6.15E-03  0.18782
    806.  12.407  8.04E-06  5.22E-04  4.08E-06  2.65E-04  0.00E+00  0.00E+00  1.21E-05  7.88E-04  6.18E-03  0.31324
    808.  12.376  8.79E-06  5.74E-04  2.76E-06  1.80E-04  0.00E+00  0.00E+00  1.15E-05  7.54E-04  6.20E-03  0.21202
    810.  12.346  7.55E-06  4.95E-04  4.63E-06  3.04E-04  0.00E+00  0.00E+00  1.22E-05  7.99E-04  6.22E-03  0.35738
    812.  12.315  7.40E-06  4.88E-04  4.77E-06  3.15E-04  0.00E+00  0.00E+00  1.22E-05  8.03E-04  6.25E-03  0.36909
    814.  12.285  8.79E-06  5.82E-04  2.71E-06  1.80E-04  0.00E+00  0.00E+00  1.15E-05  7.62E-04  6.27E-03  0.21003
    816.  12.255  7.81E-06  5.20E-04  4.09E-06  2.72E-04  0.00E+00  0.00E+00  1.19E-05  7.92E-04  6.29E-03  0.31798
    818.  12.225  7.10E-06  4.75E-04  5.02E-06  3.36E-04  0.00E+00  0.00E+00  1.21E-05  8.11E-04  6.32E-03  0.39089
    820.  12.195  7.02E-06  4.72E-04  5.08E-06  3.42E-04  0.00E+00  0.00E+00  1.21E-05  8.14E-04  6.34E-03  0.39657
    822.  12.165  7.00E-06  4.73E-04  5.06E-06  3.42E-04  0.00E+00  0.00E+00  1.21E-05  8.15E-04  6.37E-03  0.39627
    824.  12.136  7.24E-06  4.91E-04  4.67E-06  3.17E-04  0.00E+00  0.00E+00  1.19E-05  8.09E-04  6.39E-03  0.36679
    826.  12.107  7.57E-06  5.17E-04  4.22E-06  2.88E-04  0.00E+00  0.00E+00  1.18E-05  8.05E-04  6.41E-03  0.33224
    828.  12.077  8.26E-06  5.66E-04  3.16E-06  2.16E-04  0.00E+00  0.00E+00  1.14E-05  7.82E-04  6.44E-03  0.24896
    830.  12.048  6.80E-06  4.68E-04  5.16E-06  3.56E-04  0.00E+00  0.00E+00  1.20E-05  8.24E-04  6.46E-03  0.40819
    832.  12.019  6.70E-06  4.64E-04  5.24E-06  3.63E-04  0.00E+00  0.00E+00  1.19E-05  8.26E-04  6.49E-03  0.41530
    834.  11.990  6.66E-06  4.63E-04  5.25E-06  3.65E-04  0.00E+00  0.00E+00  1.19E-05  8.28E-04  6.51E-03  0.41712
    836.  11.962  7.05E-06  4.93E-04  4.73E-06  3.30E-04  0.00E+00  0.00E+00  1.18E-05  8.23E-04  6.53E-03  0.37672
    838.  11.933  6.70E-06  4.71E-04  5.11E-06  3.59E-04  0.00E+00  0.00E+00  1.18E-05  8.30E-04  6.56E-03  0.40862
    840.  11.905  7.88E-06  5.56E-04  3.37E-06  2.38E-04  0.00E+00  0.00E+00  1.12E-05  7.94E-04  6.58E-03  0.26998
    842.  11.876  6.97E-06  4.94E-04  4.64E-06  3.29E-04  0.00E+00  0.00E+00  1.16E-05  8.23E-04  6.60E-03  0.37298
    844.  11.848  6.39E-06  4.55E-04  5.34E-06  3.80E-04  0.00E+00  0.00E+00  1.17E-05  8.36E-04  6.63E-03  0.42999
    846.  11.820  6.41E-06  4.59E-04  5.27E-06  3.77E-04  0.00E+00  0.00E+00  1.17E-05  8.36E-04  6.65E-03  0.42537
    848.  11.792  6.45E-06  4.64E-04  5.18E-06  3.73E-04  0.00E+00  0.00E+00  1.16E-05  8.36E-04  6.67E-03  0.41961
    850.  11.765  7.44E-06  5.37E-04  3.68E-06  2.66E-04  0.00E+00  0.00E+00  1.11E-05  8.04E-04  6.69E-03  0.29902
    852.  11.737  8.28E-06  6.01E-04  2.29E-06  1.66E-04  0.00E+00  0.00E+00  1.06E-05  7.67E-04  6.72E-03  0.18632
    854.  11.710  7.78E-06  5.68E-04  3.27E-06  2.38E-04  0.00E+00  0.00E+00  1.10E-05  8.06E-04  6.74E-03  0.26651
    856.  11.682  6.73E-06  4.93E-04  4.60E-06  3.37E-04  0.00E+00  0.00E+00  1.13E-05  8.30E-04  6.76E-03  0.37645
    858.  11.655  6.16E-06  4.53E-04  5.37E-06  3.95E-04  0.00E+00  0.00E+00  1.15E-05  8.49E-04  6.78E-03  0.44080
    860.  11.628  6.27E-06  4.64E-04  5.20E-06  3.85E-04  0.00E+00  0.00E+00  1.15E-05  8.48E-04  6.81E-03  0.42799
    862.  11.601  5.92E-06  4.40E-04  5.59E-06  4.15E-04  0.00E+00  0.00E+00  1.15E-05  8.55E-04  6.83E-03  0.46118
    864.  11.574  6.42E-06  4.79E-04  4.87E-06  3.64E-04  0.00E+00  0.00E+00  1.13E-05  8.43E-04  6.85E-03  0.40303
    866.  11.547  6.49E-06  4.87E-04  4.75E-06  3.56E-04  0.00E+00  0.00E+00  1.12E-05  8.43E-04  6.87E-03  0.39394
    868.  11.521  5.78E-06  4.35E-04  5.63E-06  4.24E-04  0.00E+00  0.00E+00  1.14E-05  8.59E-04  6.90E-03  0.46817
    870.  11.494  6.15E-06  4.65E-04  5.04E-06  3.81E-04  0.00E+00  0.00E+00  1.12E-05  8.47E-04  6.92E-03  0.42046
    872.  11.468  6.26E-06  4.76E-04  4.87E-06  3.70E-04  0.00E+00  0.00E+00  1.11E-05  8.46E-04  6.94E-03  0.40779
    874.  11.442  5.65E-06  4.32E-04  5.66E-06  4.32E-04  0.00E+00  0.00E+00  1.13E-05  8.64E-04  6.96E-03  0.47508
    876.  11.416  5.67E-06  4.35E-04  5.60E-06  4.30E-04  0.00E+00  0.00E+00  1.13E-05  8.65E-04  6.99E-03  0.47151
    878.  11.390  6.08E-06  4.68E-04  5.00E-06  3.85E-04  0.00E+00  0.00E+00  1.11E-05  8.54E-04  7.01E-03  0.42181
    880.  11.364  6.11E-06  4.73E-04  4.90E-06  3.80E-04  0.00E+00  0.00E+00  1.10E-05  8.52E-04  7.03E-03  0.41521
    882.  11.338  5.89E-06  4.58E-04  5.18E-06  4.03E-04  0.00E+00  0.00E+00  1.11E-05  8.61E-04  7.05E-03  0.44012
    884.  11.312  6.39E-06  4.99E-04  4.44E-06  3.47E-04  0.00E+00  0.00E+00  1.08E-05  8.46E-04  7.07E-03  0.37855
    886.  11.287  5.91E-06  4.64E-04  4.98E-06  3.91E-04  0.00E+00  0.00E+00  1.09E-05  8.54E-04  7.10E-03  0.42497
    888.  11.261  6.32E-06  4.98E-04  4.42E-06  3.48E-04  0.00E+00  0.00E+00  1.07E-05  8.47E-04  7.12E-03  0.37868
    890.  11.236  6.12E-06  4.85E-04  4.72E-06  3.74E-04  0.00E+00  0.00E+00  1.08E-05  8.59E-04  7.14E-03  0.40591
    892.  11.211  5.44E-06  4.33E-04  5.53E-06  4.40E-04  0.00E+00  0.00E+00  1.10E-05  8.73E-04  7.16E-03  0.47685
    894.  11.186  5.20E-06  4.16E-04  5.79E-06  4.63E-04  0.00E+00  0.00E+00  1.10E-05  8.79E-04  7.18E-03  0.50092
    896.  11.161  5.25E-06  4.21E-04  5.68E-06  4.56E-04  0.00E+00  0.00E+00  1.09E-05  8.78E-04  7.21E-03  0.49287
    898.  11.136  5.43E-06  4.38E-04  5.45E-06  4.40E-04  0.00E+00  0.00E+00  1.09E-05  8.77E-04  7.23E-03  0.47433
1                                             RADIANCE(WATTS/CM2-STER-XXX)
0  FREQ   WAVLEN    PATH THERMAL      SURFACE EMISSION    SURFACE REFLECTED     TOTAL RADIANCE   INTEGRAL    TOTAL
  (CM-1) (MICRN)    (CM-1)   (MICRN)    (CM-1)   (MICRN)    (CM-1)   (MICRN)    (CM-1)   (MICRN)    (CM-1)   TRANS

    900.  11.111  5.07E-06  4.11E-04  5.84E-06  4.73E-04  0.00E+00  0.00E+00  1.09E-05  8.84E-04  7.25E-03  0.50987
    902.  11.086  5.07E-06  4.13E-04  5.81E-06  4.72E-04  0.00E+00  0.00E+00  1.09E-05  8.85E-04  7.27E-03  0.50825
    904.  11.062  5.08E-06  4.15E-04  5.75E-06  4.70E-04  0.00E+00  0.00E+00  1.08E-05  8.85E-04  7.29E-03  0.50515
    906.  11.038  5.54E-06  4.55E-04  5.13E-06  4.21E-04  0.00E+00  0.00E+00  1.07E-05  8.76E-04  7.31E-03  0.45141
    908.  11.013  5.87E-06  4.84E-04  4.62E-06  3.81E-04  0.00E+00  0.00E+00  1.05E-05  8.64E-04  7.34E-03  0.40763
    910.  10.989  5.76E-06  4.77E-04  4.70E-06  3.89E-04  0.00E+00  0.00E+00  1.05E-05  8.66E-04  7.36E-03  0.41628
    912.  10.965  4.98E-06  4.14E-04  5.71E-06  4.75E-04  0.00E+00  0.00E+00  1.07E-05  8.89E-04  7.38E-03  0.50729
    914.  10.941  5.23E-06  4.37E-04  5.35E-06  4.47E-04  0.00E+00  0.00E+00  1.06E-05  8.84E-04  7.40E-03  0.47713
    916.  10.917  4.84E-06  4.06E-04  5.79E-06  4.86E-04  0.00E+00  0.00E+00  1.06E-05  8.92E-04  7.42E-03  0.51839
    918.  10.893  5.22E-06  4.40E-04  5.29E-06  4.46E-04  0.00E+00  0.00E+00  1.05E-05  8.86E-04  7.44E-03  0.47472
    920.  10.870  4.95E-06  4.19E-04  5.59E-06  4.73E-04  0.00E+00  0.00E+00  1.05E-05  8.92E-04  7.46E-03  0.50304
    922.  10.846  5.84E-06  4.97E-04  4.31E-06  3.66E-04  0.00E+00  0.00E+00  1.02E-05  8.63E-04  7.48E-03  0.38937
    924.  10.823  5.33E-06  4.55E-04  4.99E-06  4.26E-04  0.00E+00  0.00E+00  1.03E-05  8.81E-04  7.50E-03  0.45208
    926.  10.799  5.11E-06  4.38E-04  5.21E-06  4.47E-04  0.00E+00  0.00E+00  1.03E-05  8.85E-04  7.52E-03  0.47386
    928.  10.776  4.79E-06  4.13E-04  5.62E-06  4.84E-04  0.00E+00  0.00E+00  1.04E-05  8.97E-04  7.54E-03  0.51252
    930.  10.753  4.74E-06  4.10E-04  5.64E-06  4.88E-04  0.00E+00  0.00E+00  1.04E-05  8.98E-04  7.56E-03  0.51584
    932.  10.730  4.59E-06  3.99E-04  5.79E-06  5.03E-04  0.00E+00  0.00E+00  1.04E-05  9.02E-04  7.59E-03  0.53133
    934.  10.707  4.49E-06  3.92E-04  5.88E-06  5.13E-04  0.00E+00  0.00E+00  1.04E-05  9.05E-04  7.61E-03  0.54188
    936.  10.684  4.48E-06  3.93E-04  5.86E-06  5.14E-04  0.00E+00  0.00E+00  1.03E-05  9.06E-04  7.63E-03  0.54161
    938.  10.661  4.45E-06  3.91E-04  5.87E-06  5.17E-04  0.00E+00  0.00E+00  1.03E-05  9.08E-04  7.65E-03  0.54453
    940.  10.638  4.53E-06  4.01E-04  5.73E-06  5.06E-04  0.00E+00  0.00E+00  1.03E-05  9.07E-04  7.67E-03  0.53259
    942.  10.616  4.49E-06  3.98E-04  5.74E-06  5.09E-04  0.00E+00  0.00E+00  1.02E-05  9.08E-04  7.69E-03  0.53583
    944.  10.593  4.54E-06  4.05E-04  5.64E-06  5.03E-04  0.00E+00  0.00E+00  1.02E-05  9.07E-04  7.71E-03  0.52803
    946.  10.571  4.51E-06  4.04E-04  5.63E-06  5.04E-04  0.00E+00  0.00E+00  1.01E-05  9.08E-04  7.73E-03  0.52903
    948.  10.549  5.22E-06  4.69E-04  4.57E-06  4.10E-04  0.00E+00  0.00E+00  9.78E-06  8.79E-04  7.75E-03  0.43041
    950.  10.526  4.26E-06  3.84E-04  5.86E-06  5.29E-04  0.00E+00  0.00E+00  1.01E-05  9.13E-04  7.77E-03  0.55445
    952.  10.504  4.39E-06  3.98E-04  5.64E-06  5.11E-04  0.00E+00  0.00E+00  1.00E-05  9.09E-04  7.79E-03  0.53531
    954.  10.482  4.73E-06  4.30E-04  5.18E-06  4.71E-04  0.00E+00  0.00E+00  9.90E-06  9.01E-04  7.81E-03  0.49285
    956.  10.460  4.61E-06  4.21E-04  5.28E-06  4.83E-04  0.00E+00  0.00E+00  9.89E-06  9.04E-04  7.83E-03  0.50490
    958.  10.438  4.15E-06  3.81E-04  5.83E-06  5.35E-04  0.00E+00  0.00E+00  9.98E-06  9.16E-04  7.85E-03  0.55928
    960.  10.417  4.45E-06  4.10E-04  5.43E-06  5.01E-04  0.00E+00  0.00E+00  9.88E-06  9.11E-04  7.87E-03  0.52261
    962.  10.395  4.05E-06  3.75E-04  5.87E-06  5.43E-04  0.00E+00  0.00E+00  9.92E-06  9.18E-04  7.89E-03  0.56690
    964.  10.373  3.91E-06  3.63E-04  6.00E-06  5.58E-04  0.00E+00  0.00E+00  9.91E-06  9.21E-04  7.91E-03  0.58139
    966.  10.352  4.29E-06  4.01E-04  5.49E-06  5.12E-04  0.00E+00  0.00E+00  9.78E-06  9.13E-04  7.93E-03  0.53342
    968.  10.331  4.03E-06  3.77E-04  5.77E-06  5.41E-04  0.00E+00  0.00E+00  9.80E-06  9.18E-04  7.95E-03  0.56314
    970.  10.309  4.16E-06  3.91E-04  5.57E-06  5.24E-04  0.00E+00  0.00E+00  9.73E-06  9.15E-04  7.97E-03  0.54496
    972.  10.288  4.67E-06  4.41E-04  4.90E-06  4.63E-04  0.00E+00  0.00E+00  9.56E-06  9.04E-04  7.99E-03  0.48111
    974.  10.267  4.41E-06  4.18E-04  5.15E-06  4.89E-04  0.00E+00  0.00E+00  9.56E-06  9.07E-04  8.01E-03  0.50792
    976.  10.246  4.58E-06  4.36E-04  4.89E-06  4.66E-04  0.00E+00  0.00E+00  9.47E-06  9.02E-04  8.02E-03  0.48365
    978.  10.225  3.95E-06  3.77E-04  5.66E-06  5.42E-04  0.00E+00  0.00E+00  9.61E-06  9.19E-04  8.04E-03  0.56248
    980.  10.204  3.69E-06  3.54E-04  5.94E-06  5.70E-04  0.00E+00  0.00E+00  9.63E-06  9.25E-04  8.06E-03  0.59192
    982.  10.183  3.69E-06  3.56E-04  5.89E-06  5.68E-04  0.00E+00  0.00E+00  9.58E-06  9.24E-04  8.08E-03  0.58881
    984.  10.163  3.80E-06  3.68E-04  5.71E-06  5.53E-04  0.00E+00  0.00E+00  9.51E-06  9.21E-04  8.10E-03  0.57317
    986.  10.142  3.52E-06  3.42E-04  6.01E-06  5.84E-04  0.00E+00  0.00E+00  9.53E-06  9.26E-04  8.12E-03  0.60498
    988.  10.121  3.49E-06  3.41E-04  5.99E-06  5.85E-04  0.00E+00  0.00E+00  9.49E-06  9.26E-04  8.14E-03  0.60595
    990.  10.101  3.56E-06  3.49E-04  5.86E-06  5.75E-04  0.00E+00  0.00E+00  9.42E-06  9.24E-04  8.16E-03  0.59491
    992.  10.081  3.44E-06  3.38E-04  5.95E-06  5.86E-04  0.00E+00  0.00E+00  9.39E-06  9.24E-04  8.18E-03  0.60605
    994.  10.060  3.47E-06  3.43E-04  5.86E-06  5.79E-04  0.00E+00  0.00E+00  9.33E-06  9.22E-04  8.20E-03  0.59901
    996.  10.040  3.41E-06  3.38E-04  5.86E-06  5.81E-04  0.00E+00  0.00E+00  9.27E-06  9.20E-04  8.21E-03  0.60129
    998.  10.020  3.63E-06  3.62E-04  5.51E-06  5.49E-04  0.00E+00  0.00E+00  9.14E-06  9.11E-04  8.23E-03  0.56728
1                                             RADIANCE(WATTS/CM2-STER-XXX)
0  FREQ   WAVLEN    PATH THERMAL      SURFACE EMISSION    SURFACE REFLECTED     TOTAL RADIANCE   INTEGRAL    TOTAL
  (CM-1) (MICRN)    (CM-1)   (MICRN)    (CM-1)   (MICRN)    (CM-1)   (MICRN)    (CM-1)   (MICRN)    (CM-1)   TRANS

   1000.  10.000  4.03E-06  4.03E-04  4.94E-06  4.94E-04  0.00E+00  0.00E+00  8.97E-06  8.97E-04  8.25E-03  0.51087
   1002.   9.980  3.39E-06  3.40E-04  5.61E-06  5.64E-04  0.00E+00  0.00E+00  9.00E-06  9.04E-04  8.27E-03  0.58224
   1004.   9.960  3.76E-06  3.79E-04  5.06E-06  5.10E-04  0.00E+00  0.00E+00  8.82E-06  8.89E-04  8.29E-03  0.52649
   1006.   9.940  3.34E-06  3.38E-04  5.41E-06  5.48E-04  0.00E+00  0.00E+00  8.75E-06  8.86E-04  8.30E-03  0.56571
   1008.   9.921  3.33E-06  3.39E-04  5.31E-06  5.40E-04  0.00E+00  0.00E+00  8.65E-06  8.78E-04  8.32E-03  0.55703
   1010.   9.901  4.08E-06  4.16E-04  4.15E-06  4.23E-04  0.00E+00  0.00E+00  8.23E-06  8.40E-04  8.34E-03  0.43661
   1012.   9.881  3.57E-06  3.66E-04  4.61E-06  4.72E-04  0.00E+00  0.00E+00  8.18E-06  8.38E-04  8.35E-03  0.48719
   1014.   9.862  4.01E-06  4.12E-04  3.76E-06  3.87E-04  0.00E+00  0.00E+00  7.77E-06  7.99E-04  8.37E-03  0.39893
   1016.   9.843  3.39E-06  3.50E-04  4.50E-06  4.65E-04  0.00E+00  0.00E+00  7.89E-06  8.14E-04  8.38E-03  0.47945
   1018.   9.823  3.83E-06  3.97E-04  3.57E-06  3.70E-04  0.00E+00  0.00E+00  7.39E-06  7.66E-04  8.40E-03  0.38117
   1020.   9.804  3.12E-06  3.25E-04  4.28E-06  4.45E-04  0.00E+00  0.00E+00  7.40E-06  7.70E-04  8.41E-03  0.45864
   1022.   9.785  3.05E-06  3.19E-04  4.08E-06  4.27E-04  0.00E+00  0.00E+00  7.14E-06  7.45E-04  8.43E-03  0.43976
   1024.   9.766  2.91E-06  3.05E-04  4.13E-06  4.33E-04  0.00E+00  0.00E+00  7.04E-06  7.38E-04  8.44E-03  0.44659
   1026.   9.747  2.89E-06  3.05E-04  4.11E-06  4.33E-04  0.00E+00  0.00E+00  7.01E-06  7.37E-04  8.46E-03  0.44614
   1028.   9.728  3.65E-06  3.85E-04  2.99E-06  3.16E-04  0.00E+00  0.00E+00  6.63E-06  7.01E-04  8.47E-03  0.32539
   1030.   9.709  3.53E-06  3.74E-04  3.01E-06  3.19E-04  0.00E+00  0.00E+00  6.54E-06  6.94E-04  8.48E-03  0.32927
   1032.   9.690  3.11E-06  3.31E-04  3.72E-06  3.96E-04  0.00E+00  0.00E+00  6.83E-06  7.27E-04  8.50E-03  0.40806
   1034.   9.671  2.85E-06  3.04E-04  4.08E-06  4.37E-04  0.00E+00  0.00E+00  6.93E-06  7.41E-04  8.51E-03  0.44998
   1036.   9.653  2.77E-06  2.97E-04  4.06E-06  4.35E-04  0.00E+00  0.00E+00  6.82E-06  7.32E-04  8.52E-03  0.44878
   1038.   9.634  3.00E-06  3.23E-04  3.60E-06  3.88E-04  0.00E+00  0.00E+00  6.59E-06  7.10E-04  8.54E-03  0.39955
   1040.   9.615  2.96E-06  3.21E-04  3.26E-06  3.52E-04  0.00E+00  0.00E+00  6.22E-06  6.73E-04  8.55E-03  0.36317
   1042.   9.597  2.87E-06  3.12E-04  4.45E-06  4.83E-04  0.00E+00  0.00E+00  7.32E-06  7.95E-04  8.56E-03  0.49805
   1044.   9.579  2.92E-06  3.18E-04  5.22E-06  5.69E-04  0.00E+00  0.00E+00  8.14E-06  8.87E-04  8.58E-03  0.58659
   1046.   9.560  2.67E-06  2.92E-04  4.51E-06  4.93E-04  0.00E+00  0.00E+00  7.18E-06  7.85E-04  8.59E-03  0.50848
   1048.   9.542  2.74E-06  3.01E-04  3.51E-06  3.85E-04  0.00E+00  0.00E+00  6.25E-06  6.87E-04  8.61E-03  0.39691
   1050.   9.524  3.05E-06  3.36E-04  2.92E-06  3.22E-04  0.00E+00  0.00E+00  5.97E-06  6.58E-04  8.62E-03  0.33180
   1052.   9.506  2.75E-06  3.04E-04  2.87E-06  3.18E-04  0.00E+00  0.00E+00  5.62E-06  6.22E-04  8.63E-03  0.32783
   1054.   9.488  2.57E-06  2.85E-04  3.09E-06  3.43E-04  0.00E+00  0.00E+00  5.65E-06  6.28E-04  8.64E-03  0.35369
   1056.   9.470  2.84E-06  3.17E-04  2.80E-06  3.12E-04  0.00E+00  0.00E+00  5.64E-06  6.29E-04  8.65E-03  0.32157
   1058.   9.452  2.75E-06  3.08E-04  3.35E-06  3.76E-04  0.00E+00  0.00E+00  6.10E-06  6.83E-04  8.67E-03  0.38747
   1060.   9.434  3.20E-06  3.60E-04  3.22E-06  3.62E-04  0.00E+00  0.00E+00  6.43E-06  7.22E-04  8.68E-03  0.37388
   1062.   9.416  3.05E-06  3.44E-04  3.87E-06  4.36E-04  0.00E+00  0.00E+00  6.91E-06  7.80E-04  8.69E-03  0.45002
   1064.   9.398  3.06E-06  3.46E-04  4.39E-06  4.96E-04  0.00E+00  0.00E+00  7.44E-06  8.42E-04  8.71E-03  0.51268
   1066.   9.381  4.23E-06  4.80E-04  2.96E-06  3.37E-04  0.00E+00  0.00E+00  7.19E-06  8.17E-04  8.72E-03  0.34788
   1068.   9.363  3.01E-06  3.43E-04  4.95E-06  5.65E-04  0.00E+00  0.00E+00  7.96E-06  9.08E-04  8.74E-03  0.58398
   1070.   9.346  2.63E-06  3.01E-04  5.46E-06  6.25E-04  0.00E+00  0.00E+00  8.09E-06  9.26E-04  8.75E-03  0.64579
   1072.   9.328  2.92E-06  3.36E-04  5.10E-06  5.86E-04  0.00E+00  0.00E+00  8.02E-06  9.22E-04  8.77E-03  0.60560
   1074.   9.311  4.02E-06  4.63E-04  3.55E-06  4.10E-04  0.00E+00  0.00E+00  7.57E-06  8.73E-04  8.78E-03  0.42389
   1076.   9.294  3.01E-06  3.48E-04  4.92E-06  5.69E-04  0.00E+00  0.00E+00  7.92E-06  9.17E-04  8.80E-03  0.58903
   1078.   9.276  2.56E-06  2.97E-04  5.45E-06  6.33E-04  0.00E+00  0.00E+00  8.00E-06  9.30E-04  8.82E-03  0.65489
   1080.   9.259  2.60E-06  3.03E-04  5.34E-06  6.23E-04  0.00E+00  0.00E+00  7.94E-06  9.26E-04  8.83E-03  0.64493
   1082.   9.242  2.59E-06  3.04E-04  5.31E-06  6.22E-04  0.00E+00  0.00E+00  7.90E-06  9.25E-04  8.85E-03  0.64383
   1084.   9.225  2.72E-06  3.20E-04  5.12E-06  6.01E-04  0.00E+00  0.00E+00  7.84E-06  9.21E-04  8.86E-03  0.62294
   1086.   9.208  2.73E-06  3.22E-04  5.06E-06  5.97E-04  0.00E+00  0.00E+00  7.79E-06  9.19E-04  8.88E-03  0.61841
   1088.   9.191  2.64E-06  3.13E-04  5.13E-06  6.08E-04  0.00E+00  0.00E+00  7.78E-06  9.21E-04  8.89E-03  0.63008
   1090.   9.174  3.10E-06  3.69E-04  4.45E-06  5.29E-04  0.00E+00  0.00E+00  7.56E-06  8.98E-04  8.91E-03  0.54893
   1092.   9.158  3.38E-06  4.03E-04  4.09E-06  4.88E-04  0.00E+00  0.00E+00  7.47E-06  8.91E-04  8.92E-03  0.50666
   1094.   9.141  2.48E-06  2.97E-04  5.23E-06  6.26E-04  0.00E+00  0.00E+00  7.71E-06  9.22E-04  8.94E-03  0.64991
   1096.   9.124  2.44E-06  2.93E-04  5.25E-06  6.31E-04  0.00E+00  0.00E+00  7.69E-06  9.23E-04  8.96E-03  0.65520
   1098.   9.107  2.64E-06  3.18E-04  4.97E-06  5.99E-04  0.00E+00  0.00E+00  7.61E-06  9.18E-04  8.97E-03  0.62280
1                                             RADIANCE(WATTS/CM2-STER-XXX)
0  FREQ   WAVLEN    PATH THERMAL      SURFACE EMISSION    SURFACE REFLECTED     TOTAL RADIANCE   INTEGRAL    TOTAL
  (CM-1) (MICRN)    (CM-1)   (MICRN)    (CM-1)   (MICRN)    (CM-1)   (MICRN)    (CM-1)   (MICRN)    (CM-1)   TRANS

   1100.   9.091  4.11E-06  4.98E-04  2.85E-06  3.45E-04  0.00E+00  0.00E+00  6.97E-06  8.43E-04  8.98E-03  0.35889
   1102.   9.074  3.36E-06  4.08E-04  3.90E-06  4.74E-04  0.00E+00  0.00E+00  7.26E-06  8.82E-04  9.00E-03  0.49353
   1104.   9.058  2.55E-06  3.11E-04  4.97E-06  6.06E-04  0.00E+00  0.00E+00  7.52E-06  9.17E-04  9.01E-03  0.63103
   1106.   9.042  3.72E-06  4.55E-04  3.35E-06  4.10E-04  0.00E+00  0.00E+00  7.07E-06  8.65E-04  9.03E-03  0.42735
   1108.   9.025  3.26E-06  4.01E-04  3.86E-06  4.74E-04  0.00E+00  0.00E+00  7.13E-06  8.75E-04  9.04E-03  0.49477
   1110.   9.009  2.83E-06  3.49E-04  4.53E-06  5.58E-04  0.00E+00  0.00E+00  7.36E-06  9.07E-04  9.06E-03  0.58255
   1112.   8.993  3.80E-06  4.70E-04  2.96E-06  3.66E-04  0.00E+00  0.00E+00  6.77E-06  8.37E-04  9.07E-03  0.38271
   1114.   8.977  2.47E-06  3.06E-04  4.90E-06  6.08E-04  0.00E+00  0.00E+00  7.37E-06  9.14E-04  9.09E-03  0.63530
   1116.   8.961  2.41E-06  3.01E-04  4.93E-06  6.14E-04  0.00E+00  0.00E+00  7.35E-06  9.15E-04  9.10E-03  0.64208
   1118.   8.945  2.86E-06  3.57E-04  4.33E-06  5.42E-04  0.00E+00  0.00E+00  7.19E-06  8.99E-04  9.11E-03  0.56652
   1120.   8.929  3.35E-06  4.20E-04  3.47E-06  4.35E-04  0.00E+00  0.00E+00  6.82E-06  8.55E-04  9.13E-03  0.45499
   1122.   8.913  3.58E-06  4.51E-04  3.14E-06  3.95E-04  0.00E+00  0.00E+00  6.72E-06  8.46E-04  9.14E-03  0.41462
   1124.   8.897  2.44E-06  3.08E-04  4.75E-06  6.00E-04  0.00E+00  0.00E+00  7.19E-06  9.08E-04  9.16E-03  0.62909
   1126.   8.881  2.30E-06  2.91E-04  4.89E-06  6.20E-04  0.00E+00  0.00E+00  7.19E-06  9.12E-04  9.17E-03  0.65105
   1128.   8.865  2.24E-06  2.85E-04  4.93E-06  6.28E-04  0.00E+00  0.00E+00  7.17E-06  9.13E-04  9.19E-03  0.65915
   1130.   8.850  2.37E-06  3.02E-04  4.74E-06  6.06E-04  0.00E+00  0.00E+00  7.11E-06  9.08E-04  9.20E-03  0.63664
   1132.   8.834  2.44E-06  3.13E-04  4.63E-06  5.93E-04  0.00E+00  0.00E+00  7.07E-06  9.06E-04  9.21E-03  0.62361
   1134.   8.818  3.56E-06  4.58E-04  3.16E-06  4.07E-04  0.00E+00  0.00E+00  6.73E-06  8.65E-04  9.23E-03  0.42797
   1136.   8.803  4.77E-06  6.16E-04  6.02E-07  7.76E-05  0.00E+00  0.00E+00  5.37E-06  6.93E-04  9.24E-03  0.08180
   1138.   8.787  3.81E-06  4.94E-04  2.63E-06  3.41E-04  0.00E+00  0.00E+00  6.45E-06  8.35E-04  9.25E-03  0.35996
   1140.   8.772  2.44E-06  3.17E-04  4.48E-06  5.83E-04  0.00E+00  0.00E+00  6.92E-06  9.00E-04  9.26E-03  0.61495
   1142.   8.757  2.60E-06  3.39E-04  4.24E-06  5.53E-04  0.00E+00  0.00E+00  6.84E-06  8.91E-04  9.28E-03  0.58375
   1144.   8.741  2.25E-06  2.95E-04  4.61E-06  6.03E-04  0.00E+00  0.00E+00  6.86E-06  8.98E-04  9.29E-03  0.63782
   1146.   8.726  2.26E-06  2.97E-04  4.55E-06  5.97E-04  0.00E+00  0.00E+00  6.81E-06  8.94E-04  9.31E-03  0.63173
   1148.   8.711  2.96E-06  3.91E-04  3.45E-06  4.55E-04  0.00E+00  0.00E+00  6.41E-06  8.45E-04  9.32E-03  0.48110
   1150.   8.696  3.60E-06  4.76E-04  2.63E-06  3.47E-04  0.00E+00  0.00E+00  6.23E-06  8.24E-04  9.33E-03  0.36847
   1152.   8.681  3.93E-06  5.21E-04  1.93E-06  2.56E-04  0.00E+00  0.00E+00  5.85E-06  7.77E-04  9.34E-03  0.27155
   1154.   8.666  2.66E-06  3.54E-04  3.87E-06  5.15E-04  0.00E+00  0.00E+00  6.53E-06  8.69E-04  9.36E-03  0.54755
   1156.   8.651  2.21E-06  2.95E-04  4.38E-06  5.86E-04  0.00E+00  0.00E+00  6.59E-06  8.80E-04  9.37E-03  0.62268
   1158.   8.636  2.13E-06  2.86E-04  4.44E-06  5.96E-04  0.00E+00  0.00E+00  6.57E-06  8.81E-04  9.38E-03  0.63411
   1160.   8.621  2.14E-06  2.88E-04  4.40E-06  5.92E-04  0.00E+00  0.00E+00  6.54E-06  8.80E-04  9.39E-03  0.63014
   1162.   8.606  2.21E-06  2.99E-04  4.30E-06  5.81E-04  0.00E+00  0.00E+00  6.51E-06  8.79E-04  9.41E-03  0.61914
   1164.   8.591  3.11E-06  4.22E-04  2.93E-06  3.97E-04  0.00E+00  0.00E+00  6.04E-06  8.19E-04  9.42E-03  0.42371
   1166.   8.576  3.87E-06  5.27E-04  1.78E-06  2.43E-04  0.00E+00  0.00E+00  5.66E-06  7.69E-04  9.43E-03  0.25943
   1168.   8.562  2.28E-06  3.11E-04  4.21E-06  5.74E-04  0.00E+00  0.00E+00  6.49E-06  8.86E-04  9.44E-03  0.61449
   1170.   8.547  2.46E-06  3.37E-04  3.93E-06  5.37E-04  0.00E+00  0.00E+00  6.39E-06  8.75E-04  9.46E-03  0.57545
   1172.   8.532  2.97E-06  4.09E-04  3.22E-06  4.43E-04  0.00E+00  0.00E+00  6.20E-06  8.51E-04  9.47E-03  0.47431
   1174.   8.518  4.28E-06  5.90E-04  5.32E-07  7.33E-05  0.00E+00  0.00E+00  4.82E-06  6.64E-04  9.48E-03  0.07853
   1176.   8.503  3.70E-06  5.12E-04  1.71E-06  2.36E-04  0.00E+00  0.00E+00  5.41E-06  7.48E-04  9.49E-03  0.25373
   1178.   8.489  2.64E-06  3.66E-04  3.48E-06  4.83E-04  0.00E+00  0.00E+00  6.12E-06  8.50E-04  9.50E-03  0.51992
   1180.   8.475  2.57E-06  3.58E-04  3.53E-06  4.91E-04  0.00E+00  0.00E+00  6.10E-06  8.49E-04  9.51E-03  0.52902
   1182.   8.460  2.31E-06  3.23E-04  3.82E-06  5.34E-04  0.00E+00  0.00E+00  6.13E-06  8.57E-04  9.53E-03  0.57550
   1184.   8.446  2.68E-06  3.76E-04  3.33E-06  4.67E-04  0.00E+00  0.00E+00  6.01E-06  8.43E-04  9.54E-03  0.50368
   1186.   8.432  3.57E-06  5.03E-04  1.76E-06  2.47E-04  0.00E+00  0.00E+00  5.33E-06  7.50E-04  9.55E-03  0.26705
   1188.   8.418  4.07E-06  5.74E-04  8.93E-07  1.26E-04  0.00E+00  0.00E+00  4.96E-06  7.00E-04  9.56E-03  0.13666
   1190.   8.403  2.82E-06  4.00E-04  3.08E-06  4.37E-04  0.00E+00  0.00E+00  5.91E-06  8.36E-04  9.57E-03  0.47310
   1192.   8.389  2.43E-06  3.46E-04  3.54E-06  5.03E-04  0.00E+00  0.00E+00  5.98E-06  8.49E-04  9.58E-03  0.54602
   1194.   8.375  2.44E-06  3.48E-04  3.53E-06  5.03E-04  0.00E+00  0.00E+00  5.97E-06  8.51E-04  9.59E-03  0.54636
   1196.   8.361  2.67E-06  3.83E-04  3.25E-06  4.66E-04  0.00E+00  0.00E+00  5.93E-06  8.48E-04  9.61E-03  0.50618
   1198.   8.347  3.82E-06  5.49E-04  9.94E-07  1.43E-04  0.00E+00  0.00E+00  4.82E-06  6.91E-04  9.62E-03  0.15506
1                                             RADIANCE(WATTS/CM2-STER-XXX)
0  FREQ   WAVLEN    PATH THERMAL      SURFACE EMISSION    SURFACE REFLECTED     TOTAL RADIANCE   INTEGRAL    TOTAL
  (CM-1) (MICRN)    (CM-1)   (MICRN)    (CM-1)   (MICRN)    (CM-1)   (MICRN)    (CM-1)   (MICRN)    (CM-1)   TRANS

   1200.   8.333  2.98E-06  4.29E-04  2.76E-06  3.97E-04  0.00E+00  0.00E+00  5.74E-06  8.26E-04  9.63E-03  0.43289
   1202.   8.319  2.09E-06  3.02E-04  3.87E-06  5.60E-04  0.00E+00  0.00E+00  5.96E-06  8.62E-04  9.64E-03  0.61119
   1204.   8.306  1.92E-06  2.79E-04  4.07E-06  5.90E-04  0.00E+00  0.00E+00  5.99E-06  8.68E-04  9.65E-03  0.64445
   1206.   8.292  2.75E-06  3.99E-04  2.94E-06  4.28E-04  0.00E+00  0.00E+00  5.69E-06  8.27E-04  9.66E-03  0.46806
   1208.   8.278  2.46E-06  3.59E-04  3.34E-06  4.88E-04  0.00E+00  0.00E+00  5.81E-06  8.47E-04  9.67E-03  0.53484
   1210.   8.264  3.35E-06  4.91E-04  1.86E-06  2.72E-04  0.00E+00  0.00E+00  5.21E-06  7.63E-04  9.69E-03  0.29854
   1212.   8.251  3.81E-06  5.59E-04  8.93E-08  1.31E-05  0.00E+00  0.00E+00  3.90E-06  5.73E-04  9.69E-03  0.01439
   1214.   8.237  3.64E-06  5.36E-04  1.56E-06  2.30E-04  0.00E+00  0.00E+00  5.20E-06  7.66E-04  9.70E-03  0.25324
   1216.   8.224  2.86E-06  4.22E-04  2.60E-06  3.85E-04  0.00E+00  0.00E+00  5.46E-06  8.07E-04  9.71E-03  0.42440
   1218.   8.210  3.60E-06  5.33E-04  1.28E-06  1.89E-04  0.00E+00  0.00E+00  4.87E-06  7.23E-04  9.72E-03  0.20881
   1220.   8.197  3.53E-06  5.25E-04  1.15E-06  1.71E-04  0.00E+00  0.00E+00  4.68E-06  6.96E-04  9.73E-03  0.18927
   1222.   8.183  3.21E-06  4.80E-04  1.86E-06  2.77E-04  0.00E+00  0.00E+00  5.07E-06  7.57E-04  9.74E-03  0.30672
   1224.   8.170  3.68E-06  5.51E-04  8.38E-07  1.26E-04  0.00E+00  0.00E+00  4.51E-06  6.76E-04  9.75E-03  0.13897
   1226.   8.157  3.60E-06  5.41E-04  4.04E-07  6.08E-05  0.00E+00  0.00E+00  4.00E-06  6.02E-04  9.76E-03  0.06762
   1228.   8.143  2.81E-06  4.24E-04  2.43E-06  3.66E-04  0.00E+00  0.00E+00  5.24E-06  7.90E-04  9.77E-03  0.40680
   1230.   8.130  2.38E-06  3.60E-04  2.70E-06  4.09E-04  0.00E+00  0.00E+00  5.08E-06  7.68E-04  9.78E-03  0.45505
   1232.   8.117  1.98E-06  3.01E-04  3.52E-06  5.34E-04  0.00E+00  0.00E+00  5.50E-06  8.35E-04  9.79E-03  0.59539
   1234.   8.104  2.02E-06  3.08E-04  3.44E-06  5.23E-04  0.00E+00  0.00E+00  5.46E-06  8.31E-04  9.80E-03  0.58441
   1236.   8.091  2.65E-06  4.05E-04  2.00E-06  3.06E-04  0.00E+00  0.00E+00  4.65E-06  7.10E-04  9.81E-03  0.34185
   1238.   8.078  2.96E-06  4.54E-04  1.63E-06  2.49E-04  0.00E+00  0.00E+00  4.59E-06  7.04E-04  9.82E-03  0.27922
   1240.   8.065  3.37E-06  5.19E-04  1.17E-06  1.80E-04  0.00E+00  0.00E+00  4.55E-06  6.99E-04  9.83E-03  0.20258
   1242.   8.052  3.18E-06  4.90E-04  1.15E-06  1.77E-04  0.00E+00  0.00E+00  4.33E-06  6.68E-04  9.84E-03  0.19917
   1244.   8.039  3.22E-06  4.99E-04  5.32E-08  8.23E-06  0.00E+00  0.00E+00  3.28E-06  5.07E-04  9.85E-03  0.00926
   1246.   8.026  3.01E-06  4.67E-04  1.06E-06  1.65E-04  0.00E+00  0.00E+00  4.07E-06  6.32E-04  9.85E-03  0.18611
   1248.   8.013  2.88E-06  4.48E-04  1.14E-06  1.78E-04  0.00E+00  0.00E+00  4.02E-06  6.26E-04  9.86E-03  0.20109
   1250.   8.000  2.79E-06  4.35E-04  1.55E-06  2.43E-04  0.00E+00  0.00E+00  4.34E-06  6.78E-04  9.87E-03  0.27443
   1252.   7.987  3.19E-06  4.99E-04  9.02E-07  1.41E-04  0.00E+00  0.00E+00  4.09E-06  6.41E-04  9.88E-03  0.16009
   1254.   7.974  2.78E-06  4.37E-04  6.15E-07  9.67E-05  0.00E+00  0.00E+00  3.39E-06  5.34E-04  9.89E-03  0.10972
   1256.   7.962  3.02E-06  4.76E-04  9.12E-07  1.44E-04  0.00E+00  0.00E+00  3.93E-06  6.20E-04  9.89E-03  0.16346
   1258.   7.949  3.31E-06  5.24E-04  2.33E-07  3.68E-05  0.00E+00  0.00E+00  3.54E-06  5.61E-04  9.90E-03  0.04186
   1260.   7.937  2.18E-06  3.46E-04  1.39E-09  2.20E-07  0.00E+00  0.00E+00  2.18E-06  3.46E-04  9.91E-03  0.00025
   1262.   7.924  2.58E-06  4.12E-04  1.31E-07  2.08E-05  0.00E+00  0.00E+00  2.72E-06  4.32E-04  9.91E-03  0.02383
   1264.   7.911  2.78E-06  4.43E-04  1.39E-07  2.23E-05  0.00E+00  0.00E+00  2.91E-06  4.66E-04  9.92E-03  0.02544
   1266.   7.899  2.40E-06  3.84E-04  8.55E-09  1.37E-06  0.00E+00  0.00E+00  2.40E-06  3.85E-04  9.92E-03  0.00157
   1268.   7.886  1.91E-06  3.08E-04  1.49E-10  2.39E-08  0.00E+00  0.00E+00  1.91E-06  3.08E-04  9.92E-03  0.00003
   1270.   7.874  2.02E-06  3.25E-04  2.46E-10  3.97E-08  0.00E+00  0.00E+00  2.02E-06  3.25E-04  9.93E-03  0.00005
   1272.   7.862  1.91E-06  3.09E-04  7.27E-10  1.18E-07  0.00E+00  0.00E+00  1.91E-06  3.10E-04  9.93E-03  0.00014
   1274.   7.849  2.54E-06  4.12E-04  1.23E-07  2.00E-05  0.00E+00  0.00E+00  2.66E-06  4.32E-04  9.94E-03  0.02308
   1276.   7.837  2.27E-06  3.69E-04  4.46E-07  7.27E-05  0.00E+00  0.00E+00  2.71E-06  4.42E-04  9.94E-03  0.08406
   1278.   7.825  2.52E-06  4.11E-04  6.39E-07  1.04E-04  0.00E+00  0.00E+00  3.15E-06  5.15E-04  9.95E-03  0.12090
   1280.   7.813  2.62E-06  4.30E-04  1.41E-07  2.32E-05  0.00E+00  0.00E+00  2.77E-06  4.53E-04  9.96E-03  0.02682
   1282.   7.800  2.29E-06  3.77E-04  1.50E-07  2.46E-05  0.00E+00  0.00E+00  2.44E-06  4.02E-04  9.96E-03  0.02859
   1284.   7.788  2.72E-06  4.48E-04  1.04E-07  1.71E-05  0.00E+00  0.00E+00  2.82E-06  4.65E-04  9.97E-03  0.01995
   1286.   7.776  2.93E-06  4.85E-04  5.66E-08  9.36E-06  0.00E+00  0.00E+00  2.99E-06  4.94E-04  9.97E-03  0.01090
   1288.   7.764  1.71E-06  2.84E-04  3.84E-11  6.37E-09  0.00E+00  0.00E+00  1.71E-06  2.84E-04  9.98E-03  0.00001
   1290.   7.752  2.35E-06  3.91E-04  7.26E-09  1.21E-06  0.00E+00  0.00E+00  2.36E-06  3.93E-04  9.98E-03  0.00142
   1292.   7.740  2.48E-06  4.13E-04  8.77E-08  1.46E-05  0.00E+00  0.00E+00  2.56E-06  4.28E-04  9.99E-03  0.01718
   1294.   7.728  2.07E-06  3.46E-04  1.11E-07  1.86E-05  0.00E+00  0.00E+00  2.18E-06  3.65E-04  9.99E-03  0.02186
   1296.   7.716  1.87E-06  3.14E-04  1.73E-08  2.91E-06  0.00E+00  0.00E+00  1.89E-06  3.17E-04  9.99E-03  0.00342
   1298.   7.704  1.88E-06  3.17E-04  9.99E-08  1.68E-05  0.00E+00  0.00E+00  1.98E-06  3.34E-04  1.00E-02  0.01990
1                                             RADIANCE(WATTS/CM2-STER-XXX)
0  FREQ   WAVLEN    PATH THERMAL      SURFACE EMISSION    SURFACE REFLECTED     TOTAL RADIANCE   INTEGRAL    TOTAL
  (CM-1) (MICRN)    (CM-1)   (MICRN)    (CM-1)   (MICRN)    (CM-1)   (MICRN)    (CM-1)   (MICRN)    (CM-1)   TRANS

   1300.   7.692  1.88E-06  3.17E-04  1.64E-07  2.78E-05  0.00E+00  0.00E+00  2.04E-06  3.45E-04  1.00E-02  0.03281
   1302.   7.680  1.55E-06  2.63E-04  8.90E-08  1.51E-05  0.00E+00  0.00E+00  1.64E-06  2.78E-04  1.00E-02  0.01785
   1304.   7.669  1.11E-06  1.88E-04  2.15E-08  3.66E-06  0.00E+00  0.00E+00  1.13E-06  1.92E-04  1.00E-02  0.00433
   1306.   7.657  1.08E-06  1.84E-04  1.33E-09  2.27E-07  0.00E+00  0.00E+00  1.08E-06  1.85E-04  1.00E-02  0.00027
   1308.   7.645  2.09E-06  3.58E-04  1.26E-09  2.16E-07  0.00E+00  0.00E+00  2.09E-06  3.58E-04  1.00E-02  0.00026
   1310.   7.634  2.57E-06  4.41E-04  5.13E-09  8.80E-07  0.00E+00  0.00E+00  2.57E-06  4.42E-04  1.00E-02  0.00105
   1312.   7.622  1.89E-06  3.25E-04  2.39E-10  4.12E-08  0.00E+00  0.00E+00  1.89E-06  3.25E-04  1.00E-02  0.00005
   1314.   7.610  1.76E-06  3.04E-04  3.44E-15  5.95E-13  0.00E+00  0.00E+00  1.76E-06  3.04E-04  1.00E-02  0.00000
   1316.   7.599  1.86E-06  3.23E-04  7.73E-15  1.34E-12  0.00E+00  0.00E+00  1.86E-06  3.23E-04  1.00E-02  0.00000
   1318.   7.587  1.62E-06  2.82E-04  1.43E-13  2.48E-11  0.00E+00  0.00E+00  1.62E-06  2.82E-04  1.00E-02  0.00000
   1320.   7.576  1.69E-06  2.94E-04  1.39E-13  2.42E-11  0.00E+00  0.00E+00  1.69E-06  2.94E-04  1.00E-02  0.00000
   1322.   7.564  2.07E-06  3.61E-04  3.69E-10  6.44E-08  0.00E+00  0.00E+00  2.07E-06  3.61E-04  1.00E-02  0.00008
   1324.   7.553  2.72E-06  4.78E-04  1.12E-08  1.96E-06  0.00E+00  0.00E+00  2.74E-06  4.80E-04  1.00E-02  0.00238
   1326.   7.541  2.56E-06  4.50E-04  1.82E-08  3.20E-06  0.00E+00  0.00E+00  2.58E-06  4.53E-04  1.01E-02  0.00388
   1328.   7.530  2.29E-06  4.04E-04  3.57E-09  6.29E-07  0.00E+00  0.00E+00  2.29E-06  4.04E-04  1.01E-02  0.00076
   1330.   7.519  2.59E-06  4.59E-04  1.07E-08  1.89E-06  0.00E+00  0.00E+00  2.60E-06  4.61E-04  1.01E-02  0.00230
   1332.   7.508  2.08E-06  3.69E-04  1.15E-08  2.04E-06  0.00E+00  0.00E+00  2.09E-06  3.72E-04  1.01E-02  0.00249
   1334.   7.496  2.32E-06  4.12E-04  4.97E-10  8.85E-08  0.00E+00  0.00E+00  2.32E-06  4.12E-04  1.01E-02  0.00011
   1336.   7.485  1.89E-06  3.37E-04  5.44E-12  9.71E-10  0.00E+00  0.00E+00  1.89E-06  3.37E-04  1.01E-02  0.00000
   1338.   7.474  1.13E-06  2.02E-04  5.13E-20  9.18E-18  0.00E+00  0.00E+00  1.13E-06  2.02E-04  1.01E-02  0.00000
   1340.   7.463  1.15E-06  2.06E-04  3.34E-28  6.00E-26  0.00E+00  0.00E+00  1.15E-06  2.06E-04  1.01E-02  0.00000
   1342.   7.452  1.42E-06  2.56E-04  2.03E-12  3.66E-10  0.00E+00  0.00E+00  1.42E-06  2.56E-04  1.01E-02  0.00000
   1344.   7.440  2.24E-06  4.05E-04  4.23E-10  7.64E-08  0.00E+00  0.00E+00  2.24E-06  4.05E-04  1.01E-02  0.00009
   1346.   7.429  2.17E-06  3.92E-04  8.51E-10  1.54E-07  0.00E+00  0.00E+00  2.17E-06  3.93E-04  1.01E-02  0.00019
   1348.   7.418  1.65E-06  3.00E-04  5.88E-11  1.07E-08  0.00E+00  0.00E+00  1.65E-06  3.01E-04  1.01E-02  0.00001
   1350.   7.407  1.79E-06  3.27E-04  5.95E-11  1.08E-08  0.00E+00  0.00E+00  1.79E-06  3.27E-04  1.01E-02  0.00001
   1352.   7.396  1.98E-06  3.61E-04  1.59E-10  2.91E-08  0.00E+00  0.00E+00  1.98E-06  3.61E-04  1.01E-02  0.00004
   1354.   7.386  1.75E-06  3.21E-04  1.96E-11  3.59E-09  0.00E+00  0.00E+00  1.75E-06  3.21E-04  1.01E-02  0.00000
   1356.   7.375  1.70E-06  3.12E-04  2.37E-12  4.35E-10  0.00E+00  0.00E+00  1.70E-06  3.12E-04  1.01E-02  0.00000
   1358.   7.364  1.86E-06  3.44E-04  2.12E-12  3.91E-10  0.00E+00  0.00E+00  1.86E-06  3.44E-04  1.01E-02  0.00000
   1360.   7.353  1.64E-06  3.04E-04  6.29E-16  1.16E-13  0.00E+00  0.00E+00  1.64E-06  3.04E-04  1.01E-02  0.00000
   1362.   7.342  1.11E-06  2.06E-04  8.85E-22  1.64E-19  0.00E+00  0.00E+00  1.11E-06  2.06E-04  1.01E-02  0.00000
   1364.   7.331  1.28E-06  2.38E-04  2.30E-21  4.28E-19  0.00E+00  0.00E+00  1.28E-06  2.38E-04  1.01E-02  0.00000
   1366.   7.321  1.95E-06  3.65E-04  1.95E-15  3.63E-13  0.00E+00  0.00E+00  1.95E-06  3.65E-04  1.01E-02  0.00000
   1368.   7.310  1.52E-06  2.85E-04  1.04E-15  1.94E-13  0.00E+00  0.00E+00  1.52E-06  2.85E-04  1.01E-02  0.00000
   1370.   7.299  1.58E-06  2.96E-04  2.22E-16  4.16E-14  0.00E+00  0.00E+00  1.58E-06  2.96E-04  1.01E-02  0.00000
   1372.   7.289  1.47E-06  2.77E-04  8.18E-20  1.54E-17  0.00E+00  0.00E+00  1.47E-06  2.77E-04  1.01E-02  0.00000
   1374.   7.278  9.33E-07  1.76E-04  1.93E-29  3.64E-27  0.00E+00  0.00E+00  9.33E-07  1.76E-04  1.01E-02  0.00000
   1376.   7.267  1.26E-06  2.39E-04  1.67E-23  3.16E-21  0.00E+00  0.00E+00  1.26E-06  2.39E-04  1.01E-02  0.00000
   1378.   7.257  1.52E-06  2.89E-04  1.33E-21  2.52E-19  0.00E+00  0.00E+00  1.52E-06  2.89E-04  1.01E-02  0.00000
   1380.   7.246  1.62E-06  3.08E-04  2.47E-15  4.71E-13  0.00E+00  0.00E+00  1.62E-06  3.08E-04  1.01E-02  0.00000
   1382.   7.236  1.88E-06  3.60E-04  5.53E-15  1.06E-12  0.00E+00  0.00E+00  1.88E-06  3.60E-04  1.01E-02  0.00000
   1384.   7.225  1.82E-06  3.49E-04  3.08E-16  5.89E-14  0.00E+00  0.00E+00  1.82E-06  3.49E-04  1.01E-02  0.00000
   1386.   7.215  1.24E-06  2.39E-04  1.55E-24  2.98E-22  0.00E+00  0.00E+00  1.24E-06  2.39E-04  1.02E-02  0.00000
   1388.   7.205  9.44E-07  1.82E-04  8.16E-23  1.57E-20  0.00E+00  0.00E+00  9.44E-07  1.82E-04  1.02E-02  0.00000
   1390.   7.194  1.45E-06  2.80E-04  3.54E-27  6.84E-25  0.00E+00  0.00E+00  1.45E-06  2.80E-04  1.02E-02  0.00000
   1392.   7.184  1.41E-06  2.72E-04  2.61E-27  5.05E-25  0.00E+00  0.00E+00  1.41E-06  2.72E-04  1.02E-02  0.00000
   1394.   7.174  8.40E-07  1.63E-04  9.11E-28  1.77E-25  0.00E+00  0.00E+00  8.40E-07  1.63E-04  1.02E-02  0.00000
   1396.   7.163  9.50E-07  1.85E-04  1.40E-45  2.73E-43  0.00E+00  0.00E+00  9.50E-07  1.85E-04  1.02E-02  0.00000
   1398.   7.153  9.53E-07  1.86E-04  1.48E-23  2.89E-21  0.00E+00  0.00E+00  9.53E-07  1.86E-04  1.02E-02  0.00000
1                                             RADIANCE(WATTS/CM2-STER-XXX)
0  FREQ   WAVLEN    PATH THERMAL      SURFACE EMISSION    SURFACE REFLECTED     TOTAL RADIANCE   INTEGRAL    TOTAL
  (CM-1) (MICRN)    (CM-1)   (MICRN)    (CM-1)   (MICRN)    (CM-1)   (MICRN)    (CM-1)   (MICRN)    (CM-1)   TRANS

   1400.   7.143  9.60E-07  1.88E-04  1.48E-23  2.89E-21  0.00E+00  0.00E+00  9.60E-07  1.88E-04  1.02E-02  0.00000
   1402.   7.133  1.46E-06  2.87E-04  3.46E-27  6.81E-25  0.00E+00  0.00E+00  1.46E-06  2.87E-04  1.02E-02  0.00000
   1404.   7.123  1.05E-06  2.06E-04  2.30E-18  4.53E-16  0.00E+00  0.00E+00  1.05E-06  2.06E-04  1.02E-02  0.00000
   1406.   7.112  1.27E-06  2.50E-04  2.30E-18  4.54E-16  0.00E+00  0.00E+00  1.27E-06  2.50E-04  1.02E-02  0.00000
   1408.   7.102  1.64E-06  3.25E-04  2.13E-19  4.22E-17  0.00E+00  0.00E+00  1.64E-06  3.25E-04  1.02E-02  0.00000
   1410.   7.092  1.38E-06  2.74E-04  2.01E-21  3.99E-19  0.00E+00  0.00E+00  1.38E-06  2.74E-04  1.02E-02  0.00000
   1412.   7.082  1.27E-06  2.53E-04  4.93E-22  9.84E-20  0.00E+00  0.00E+00  1.27E-06  2.53E-04  1.02E-02  0.00000
   1414.   7.072  1.47E-06  2.93E-04  4.97E-22  9.94E-20  0.00E+00  0.00E+00  1.47E-06  2.93E-04  1.02E-02  0.00000
   1416.   7.062  1.03E-06  2.06E-04  2.49E-30  4.99E-28  0.00E+00  0.00E+00  1.03E-06  2.06E-04  1.02E-02  0.00000
   1418.   7.052  7.49E-07  1.51E-04  0.00E+00  0.00E+00  0.00E+00  0.00E+00  7.49E-07  1.51E-04  1.02E-02  0.00000
   1420.   7.042  6.16E-07  1.24E-04  0.00E+00  0.00E+00  0.00E+00  0.00E+00  6.16E-07  1.24E-04  1.02E-02  0.00000
   1422.   7.032  1.05E-06  2.12E-04  0.00E+00  0.00E+00  0.00E+00  0.00E+00  1.05E-06  2.12E-04  1.02E-02  0.00000
   1424.   7.022  8.04E-07  1.63E-04  1.00E-30  2.04E-28  0.00E+00  0.00E+00  8.04E-07  1.63E-04  1.02E-02  0.00000
   1426.   7.013  1.23E-06  2.51E-04  6.00E-32  1.22E-29  0.00E+00  0.00E+00  1.23E-06  2.51E-04  1.02E-02  0.00000
   1428.   7.003  1.07E-06  2.19E-04  5.86E-32  1.20E-29  0.00E+00  0.00E+00  1.07E-06  2.19E-04  1.02E-02  0.00000
   1430.   6.993  7.85E-07  1.60E-04  1.27E-25  2.60E-23  0.00E+00  0.00E+00  7.85E-07  1.60E-04  1.02E-02  0.00000
   1432.   6.983  1.03E-06  2.11E-04  1.47E-39  3.02E-37  0.00E+00  0.00E+00  1.03E-06  2.11E-04  1.02E-02  0.00000
   1434.   6.974  9.47E-07  1.95E-04  9.07E-42  1.87E-39  0.00E+00  0.00E+00  9.47E-07  1.95E-04  1.02E-02  0.00000
   1436.   6.964  5.88E-07  1.21E-04  0.00E+00  0.00E+00  0.00E+00  0.00E+00  5.88E-07  1.21E-04  1.02E-02  0.00000
   1438.   6.954  7.82E-07  1.62E-04  0.00E+00  0.00E+00  0.00E+00  0.00E+00  7.82E-07  1.62E-04  1.02E-02  0.00000
   1440.   6.944  1.17E-06  2.43E-04  2.49E-31  5.16E-29  0.00E+00  0.00E+00  1.17E-06  2.43E-04  1.02E-02  0.00000
   1442.   6.935  1.27E-06  2.65E-04  5.40E-27  1.12E-24  0.00E+00  0.00E+00  1.27E-06  2.65E-04  1.02E-02  0.00000
   1444.   6.925  1.26E-06  2.63E-04  8.21E-27  1.71E-24  0.00E+00  0.00E+00  1.26E-06  2.63E-04  1.02E-02  0.00000
   1446.   6.916  9.41E-07  1.97E-04  1.06E-33  2.22E-31  0.00E+00  0.00E+00  9.41E-07  1.97E-04  1.02E-02  0.00000
   1448.   6.906  7.13E-07  1.49E-04  3.14E-28  6.59E-26  0.00E+00  0.00E+00  7.13E-07  1.49E-04  1.02E-02  0.00000
   1450.   6.897  1.04E-06  2.19E-04  1.15E-42  2.43E-40  0.00E+00  0.00E+00  1.04E-06  2.19E-04  1.02E-02  0.00000
   1452.   6.887  8.49E-07  1.79E-04  0.00E+00  0.00E+00  0.00E+00  0.00E+00  8.49E-07  1.79E-04  1.02E-02  0.00000
   1454.   6.878  7.89E-07  1.67E-04  0.00E+00  0.00E+00  0.00E+00  0.00E+00  7.89E-07  1.67E-04  1.02E-02  0.00000
   1456.   6.868  4.55E-07  9.64E-05  0.00E+00  0.00E+00  0.00E+00  0.00E+00  4.55E-07  9.64E-05  1.02E-02  0.00000
   1458.   6.859  3.92E-07  8.33E-05  0.00E+00  0.00E+00  0.00E+00  0.00E+00  3.92E-07  8.33E-05  1.02E-02  0.00000
   1460.   6.849  6.97E-07  1.49E-04  0.00E+00  0.00E+00  0.00E+00  0.00E+00  6.97E-07  1.49E-04  1.02E-02  0.00000
   1462.   6.840  8.97E-07  1.92E-04  0.00E+00  0.00E+00  0.00E+00  0.00E+00  8.97E-07  1.92E-04  1.02E-02  0.00000
   1464.   6.831  5.82E-07  1.25E-04  1.24E-36  2.66E-34  0.00E+00  0.00E+00  5.82E-07  1.25E-04  1.02E-02  0.00000
   1466.   6.821  6.73E-07  1.45E-04  1.24E-36  2.67E-34  0.00E+00  0.00E+00  6.73E-07  1.45E-04  1.02E-02  0.00000
   1468.   6.812  8.86E-07  1.91E-04  0.00E+00  0.00E+00  0.00E+00  0.00E+00  8.86E-07  1.91E-04  1.02E-02  0.00000
   1470.   6.803  7.95E-07  1.72E-04  0.00E+00  0.00E+00  0.00E+00  0.00E+00  7.95E-07  1.72E-04  1.02E-02  0.00000
   1472.   6.793  4.56E-07  9.87E-05  0.00E+00  0.00E+00  0.00E+00  0.00E+00  4.56E-07  9.87E-05  1.02E-02  0.00000
   1474.   6.784  4.85E-07  1.05E-04  0.00E+00  0.00E+00  0.00E+00  0.00E+00  4.85E-07  1.05E-04  1.02E-02  0.00000
   1476.   6.775  5.44E-07  1.19E-04  0.00E+00  0.00E+00  0.00E+00  0.00E+00  5.44E-07  1.19E-04  1.02E-02  0.00000
   1478.   6.766  8.55E-07  1.87E-04  0.00E+00  0.00E+00  0.00E+00  0.00E+00  8.55E-07  1.87E-04  1.02E-02  0.00000
   1480.   6.757  8.55E-07  1.87E-04  1.63E-43  3.56E-41  0.00E+00  0.00E+00  8.55E-07  1.87E-04  1.02E-02  0.00000
   1482.   6.748  7.74E-07  1.70E-04  1.63E-43  3.57E-41  0.00E+00  0.00E+00  7.74E-07  1.70E-04  1.02E-02  0.00000
   1484.   6.739  8.98E-07  1.98E-04  0.00E+00  0.00E+00  0.00E+00  0.00E+00  8.98E-07  1.98E-04  1.02E-02  0.00000
   1486.   6.729  6.37E-07  1.41E-04  0.00E+00  0.00E+00  0.00E+00  0.00E+00  6.37E-07  1.41E-04  1.02E-02  0.00000
   1488.   6.720  4.97E-07  1.10E-04  0.00E+00  0.00E+00  0.00E+00  0.00E+00  4.97E-07  1.10E-04  1.02E-02  0.00000
   1490.   6.711  4.24E-07  9.41E-05  0.00E+00  0.00E+00  0.00E+00  0.00E+00  4.24E-07  9.41E-05  1.02E-02  0.00000
   1492.   6.702  6.46E-07  1.44E-04  0.00E+00  0.00E+00  0.00E+00  0.00E+00  6.46E-07  1.44E-04  1.02E-02  0.00000
   1494.   6.693  7.20E-07  1.61E-04  0.00E+00  0.00E+00  0.00E+00  0.00E+00  7.20E-07  1.61E-04  1.03E-02  0.00000
   1496.   6.684  4.26E-07  9.54E-05  0.00E+00  0.00E+00  0.00E+00  0.00E+00  4.26E-07  9.54E-05  1.03E-02  0.00000
   1498.   6.676  4.34E-07  9.74E-05  0.00E+00  0.00E+00  0.00E+00  0.00E+00  4.34E-07  9.74E-05  1.03E-02  0.00000
1                                             RADIANCE(WATTS/CM2-STER-XXX)
0  FREQ   WAVLEN    PATH THERMAL      SURFACE EMISSION    SURFACE REFLECTED     TOTAL RADIANCE   INTEGRAL    TOTAL
  (CM-1) (MICRN)    (CM-1)   (MICRN)    (CM-1)   (MICRN)    (CM-1)   (MICRN)    (CM-1)   (MICRN)    (CM-1)   TRANS

   1500.   6.667  5.27E-07  1.19E-04  0.00E+00  0.00E+00  0.00E+00  0.00E+00  5.27E-07  1.19E-04  1.03E-02  0.00000
0INTEGRATED ABSORPTION FROM  100 TO 1500 CM-1 =   1172.44 CM-1
 AVERAGE TRANSMITTANCE =0.1625

0INTEGRATED RADIANCE =  1.025E-02 WATTS CM-2 STER-1
 MINIMUM RADIANCE    =  3.920E-07 WATTS CM-2 STER-1 (CM-1)-1 AT     1458.0 CM-1
 MAXIMUM RADIANCE    =  1.334E-05 WATTS CM-2 STER-1 (CM-1)-1 AT      654.0 CM-1
 BOUNDARY TEMPERATURE =     299.70 K
 BOUNDARY EMISSIVITY =       0.980
0 CARD 5 *****    0
