*****  MODTRAN3 Version 1.3  12/1/95  *****
0 CARD 1  *****T   1    3    1    0    0    0    0    0    0    0    0    0   -1   0.000  -1.00
0 CARD 2  *****    2    0    0    0    0    0     0.000     0.000     0.000     0.000     0.000
0 CARD 3  *****     1.000     0.000     0.000     0.000     0.000     0.000    0
0 CARD 4  *****       100      1500         2         2
0 PROGRAM WILL COMPUTE RADIANCE                
0 ATMOSPHERIC MODEL
          TEMPERATURE =    1     TROPICAL MODEL      
          WATER VAPOR =    1     TROPICAL MODEL      
          OZONE       =    1     TROPICAL MODEL      
                      M4 =     1 M5 =     1 M6 =     1 MDEF =     1
0 AEROSOL MODEL
          REGIME                  AEROSOL TYPE             PROFILE                  SEASON

          BOUNDARY LAYER (0-2 KM) RURAL                      5.0 KM VIS AT SEA LEVEL
          TROPOSPHERE  (2-10KM)   TROPOSPHERIC             TROPOSPHERIC             SPRING-SUMMER       
          STRATOSPHERE (10-30KM)  BACKGROUND STRATO        BACKGROUND STRATO        SPRING-SUMMER       
          UPPER ATMOS (30-100KM)  METEORIC DUST            NORMAL              
0 SLANT PATH TO SPACE
          H1    =      1.000 KM
          HMIN  =      0.000 KM
          ANGLE =      0.000 DEG
0 FREQUENCY RANGE
             IV1 =       100 CM-1  (    100.00 MICROMETERS)
             IV2 =      1500 CM-1  (      6.67 MICROMETERS)
             IDV =         2 CM-1
           IFWHM =         2 CM-1
1
  ATMOSPHERIC PROFILES

   I     Z       P       T        N2       CNTMSLF MOL SCAT     N-1     O3 (UV)  O2 (UV)
        (KM)    (MB)    (K)            (MOL/CM2 KM)   (-)       (-)  (ATM CM/KM) (ATM CM/KM)

   1     0.00 1013.000  299.7  7.622E-01 1.623E+21 9.112E-01 2.609E-04 2.612E-03 3.342E+04
   2     1.00  904.000  293.7  6.321E-01 7.602E+20 8.298E-01 2.379E-04 2.612E-03 2.927E+04
   3     2.00  805.000  287.7  5.223E-01 3.892E+20 7.543E-01 2.164E-04 2.519E-03 2.562E+04
   4     3.00  715.000  283.7  4.238E-01 9.924E+19 6.794E-01 1.951E-04 2.379E-03 2.219E+04
   5     4.00  633.000  277.0  3.484E-01 2.176E+19 6.160E-01 1.770E-04 2.192E-03 1.945E+04
   6     5.00  559.000  270.3  2.853E-01 1.012E+19 5.575E-01 1.603E-04 2.099E-03 1.703E+04
   7     6.00  492.000  263.6  2.324E-01 3.249E+18 5.032E-01 1.447E-04 2.006E-03 1.490E+04
   8     7.00  432.000  257.0  1.885E-01 9.917E+17 4.531E-01 1.303E-04 1.912E-03 1.302E+04
   9     8.00  378.000  250.3  1.522E-01 2.810E+17 4.071E-01 1.171E-04 1.819E-03 1.138E+04
  10     9.00  329.000  243.6  1.217E-01 6.471E+16 3.641E-01 1.047E-04 1.819E-03 9.902E+03
  11    10.00  286.000  237.0  9.716E-02 1.125E+16 3.253E-01 9.355E-05 1.819E-03 8.629E+03
  12    11.00  247.000  230.1  7.688E-02 1.299E+15 2.894E-01 8.322E-05 1.912E-03 7.496E+03
  13    12.00  213.000  223.6  6.054E-02 1.618E+14 2.568E-01 7.385E-05 2.006E-03 6.507E+03
  14    13.00  182.000  217.0  4.693E-02 1.456E+13 2.261E-01 6.502E-05 2.099E-03 5.608E+03
  15    14.00  156.000  210.3  3.671E-02 4.497E+12 2.000E-01 5.751E-05 2.098E-03 4.870E+03
  16    15.00  132.000  203.7  2.802E-02 1.419E+12 1.747E-01 5.024E-05 2.193E-03 4.178E+03
  17    16.00  111.000  197.0  2.118E-02 6.036E+11 1.519E-01 4.368E-05 2.192E-03 3.572E+03
  18    17.00   93.700  194.8  1.544E-02 4.110E+11 1.297E-01 3.729E-05 3.240E-03 3.000E+03
  19    18.00   78.900  198.8  1.051E-02 2.516E+11 1.070E-01 3.077E-05 5.346E-03 2.433E+03
  20    19.00   66.600  202.7  7.202E-03 1.542E+11 8.857E-02 2.547E-05 8.409E-03 1.986E+03
  21    20.00   56.500  206.7  4.985E-03 1.067E+11 7.369E-02 2.119E-05 1.031E-02 1.633E+03
  22    21.00   48.000  210.7  3.463E-03 7.699E+10 6.141E-02 1.766E-05 1.105E-02 1.348E+03
  23    22.00   40.900  214.6  2.423E-03 6.016E+10 5.138E-02 1.478E-05 1.232E-02 1.119E+03
  24    23.00   35.000  217.0  1.736E-03 4.622E+10 4.348E-02 1.250E-05 1.477E-02 9.409E+02
  25    24.00   30.000  219.2  1.250E-03 4.052E+10 3.689E-02 1.061E-05 1.585E-02 7.942E+02
  26    25.00   25.700  221.4  8.990E-04 3.007E+10 3.129E-02 8.999E-06 1.689E-02 6.705E+02
  27    30.00   12.200  232.3  1.840E-04 9.323E+09 1.416E-02 4.072E-06 1.316E-02 2.992E+02
  28    35.00    6.000  243.1  4.064E-05 2.723E+09 6.654E-03 1.913E-06 6.450E-03 1.397E+02
  29    40.00    3.050  254.0  9.620E-06 8.236E+08 3.237E-03 9.309E-07 2.426E-03 6.779E+01
  30    45.00    1.590  264.8  2.405E-06 2.475E+08 1.619E-03 4.655E-07 7.279E-04 3.385E+01
  31    50.00    0.854  270.2  6.665E-07 7.597E+07 8.520E-04 2.450E-07 2.384E-04 1.781E+01
  32    70.00    0.058  218.9  4.684E-09 3.003E+05 7.143E-05 2.054E-08 2.141E-06 1.492E+00
  33   100.00    0.000  190.7  1.532E-13 7.763E-02 4.085E-07 1.175E-10 1.633E-08 6.532E-03
1
  ATMOSPHERIC PROFILES

   I     Z       P       T      CNTMFRN     HNO3    AEROSOL 1 AEROSOL 2 AEROSOL 3 AEROSOL 4 AER1*RH   CIRRUS         RH
        (KM)    (MB)    (K)   MOL/CM2 KM ATM CM/KM   (-)       (-)       (-)       (-)       (-)       (-)      (PERCNT)

   1     0.00 1013.000  299.7  6.101E+22 4.556E-06 7.700E-01 0.000E+00 0.000E+00 0.000E+00 2.462E+00 0.000E+00 7.553E+01
   2     1.00  904.000  293.7  3.828E+22 4.945E-06 7.700E-01 0.000E+00 0.000E+00 0.000E+00 2.544E+00 0.000E+00 7.277E+01
   3     2.00  805.000  287.7  2.500E+22 5.227E-06 6.210E-02 0.000E+00 0.000E+00 0.000E+00 2.011E-01 0.000E+00 7.451E+01
   4     3.00  715.000  283.7  1.145E+22 5.374E-06 0.000E+00 3.460E-02 0.000E+00 0.000E+00 0.000E+00 0.000E+00 4.825E+01
   5     4.00  633.000  277.0  4.881E+21 5.464E-06 0.000E+00 1.850E-02 0.000E+00 0.000E+00 0.000E+00 0.000E+00 3.491E+01
   6     5.00  559.000  270.3  3.015E+21 5.436E-06 0.000E+00 9.310E-03 0.000E+00 0.000E+00 0.000E+00 0.000E+00 3.771E+01
   7     6.00  492.000  263.6  1.544E+21 5.585E-06 0.000E+00 7.710E-03 0.000E+00 0.000E+00 0.000E+00 0.000E+00 3.479E+01
   8     7.00  432.000  257.0  7.690E+20 5.710E-06 0.000E+00 6.230E-03 0.000E+00 0.000E+00 0.000E+00 0.000E+00 3.198E+01
   9     8.00  378.000  250.3  3.680E+20 5.659E-06 0.000E+00 3.370E-03 0.000E+00 0.000E+00 0.000E+00 0.000E+00 2.947E+01
  10     9.00  329.000  243.6  1.580E+20 5.571E-06 0.000E+00 1.820E-03 0.000E+00 0.000E+00 0.000E+00 0.000E+00 2.535E+01
  11    10.00  286.000  237.0  5.886E+19 5.660E-06 0.000E+00 1.140E-03 0.000E+00 0.000E+00 0.000E+00 0.000E+00 1.951E+01
  12    11.00  247.000  230.1  1.780E+19 5.845E-06 0.000E+00 0.000E+00 7.990E-04 0.000E+00 0.000E+00 0.000E+00 1.315E+01
  13    12.00  213.000  223.6  5.573E+18 6.189E-06 0.000E+00 0.000E+00 6.410E-04 0.000E+00 0.000E+00 0.000E+00 9.253E+00
  14    13.00  182.000  217.0  1.472E+18 6.240E-06 0.000E+00 0.000E+00 5.170E-04 0.000E+00 0.000E+00 0.000E+00 5.881E+00
  15    14.00  156.000  210.3  7.236E+17 6.659E-06 0.000E+00 0.000E+00 4.420E-04 0.000E+00 0.000E+00 0.000E+00 7.410E+00
  16    15.00  132.000  203.7  3.551E+17 7.896E-06 0.000E+00 0.000E+00 3.950E-04 0.000E+00 0.000E+00 0.000E+00 9.923E+00
  17    16.00  111.000  197.0  2.014E+17 1.119E-05 0.000E+00 0.000E+00 3.820E-04 0.000E+00 0.000E+00 0.000E+00 1.677E+01
  18    17.00   93.700  194.8  1.419E+17 1.699E-05 0.000E+00 0.000E+00 4.250E-04 0.000E+00 0.000E+00 0.000E+00 1.924E+01
  19    18.00   78.900  198.8  9.158E+16 2.257E-05 0.000E+00 0.000E+00 5.200E-04 0.000E+00 0.000E+00 0.000E+00 8.321E+00
  20    19.00   66.600  202.7  5.934E+16 2.808E-05 0.000E+00 0.000E+00 5.810E-04 0.000E+00 0.000E+00 0.000E+00 3.752E+00
  21    20.00   56.500  206.7  4.107E+16 3.095E-05 0.000E+00 0.000E+00 5.890E-04 0.000E+00 0.000E+00 0.000E+00 1.818E+00
  22    21.00   48.000  210.7  2.908E+16 3.034E-05 0.000E+00 0.000E+00 5.020E-04 0.000E+00 0.000E+00 0.000E+00 9.217E-01
  23    22.00   40.900  214.6  2.150E+16 2.805E-05 0.000E+00 0.000E+00 4.200E-04 0.000E+00 0.000E+00 0.000E+00 5.033E-01
  24    23.00   35.000  217.0  1.595E+16 2.496E-05 0.000E+00 0.000E+00 3.000E-04 0.000E+00 0.000E+00 0.000E+00 3.313E-01
  25    24.00   30.000  219.2  1.267E+16 2.155E-05 0.000E+00 0.000E+00 1.980E-04 0.000E+00 0.000E+00 0.000E+00 2.401E-01
  26    25.00   25.700  221.4  9.258E+15 1.756E-05 0.000E+00 0.000E+00 1.310E-04 0.000E+00 0.000E+00 0.000E+00 1.611E-01
  27    30.00   12.200  232.3  2.333E+15 5.295E-06 0.000E+00 0.000E+00 3.320E-05 0.000E+00 0.000E+00 0.000E+00 2.817E-02
  28    35.00    6.000  243.1  5.924E+14 1.091E-06 0.000E+00 0.000E+00 0.000E+00 1.640E-05 0.000E+00 0.000E+00 5.440E-03
  29    40.00    3.050  254.0  1.585E+14 1.725E-07 0.000E+00 0.000E+00 0.000E+00 7.990E-06 0.000E+00 0.000E+00 1.173E-03
  30    45.00    1.590  264.8  4.345E+13 1.959E-08 0.000E+00 0.000E+00 0.000E+00 4.010E-06 0.000E+00 0.000E+00 2.777E-04
  31    50.00    0.854  270.2  1.267E+13 4.729E-09 0.000E+00 0.000E+00 0.000E+00 2.100E-06 0.000E+00 0.000E+00 1.041E-04
  32    70.00    0.058  218.9  6.679E+10 2.336E-10 0.000E+00 0.000E+00 0.000E+00 1.600E-07 0.000E+00 0.000E+00 6.767E-04
  33   100.00    0.000  190.7  1.942E+05 1.115E-12 0.000E+00 0.000E+00 0.000E+00 9.310E-10 0.000E+00 0.000E+00 1.583E-05
1
  ATMOSPHERIC PROFILES

   I      Z       P       T      H2O      O3       CO2      CO       CH4      N2O      O2       NH3      NO       NO2      SO2
         (KM)    (MB)    (K)  (                                 ATM CM/KM                                                     )
   1     0.00 1013.000  299.7  2.36E+03 2.61E-03 3.41E+01 1.37E-02 1.55E-01 2.91E-02 1.90E+04 4.55E-05 2.73E-05 2.09E-06 2.73E-05
   2     1.00  904.000  293.7  1.62E+03 2.61E-03 3.11E+01 1.20E-02 1.41E-01 2.65E-02 1.73E+04 4.15E-05 2.49E-05 1.91E-06 2.27E-05
   3     2.00  805.000  287.7  1.16E+03 2.52E-03 2.83E+01 1.05E-02 1.28E-01 2.41E-02 1.58E+04 3.49E-05 2.26E-05 1.73E-06 1.78E-05
   4     3.00  715.000  283.7  5.84E+02 2.38E-03 2.55E+01 9.16E-03 1.15E-01 2.17E-02 1.42E+04 2.58E-05 2.04E-05 1.56E-06 1.29E-05
   5     4.00  633.000  277.0  2.73E+02 2.19E-03 2.31E+01 8.08E-03 1.05E-01 1.97E-02 1.29E+04 1.77E-05 1.85E-05 1.42E-06 8.99E-06
   6     5.00  559.000  270.3  1.86E+02 2.10E-03 2.09E+01 7.26E-03 9.47E-02 1.78E-02 1.16E+04 1.14E-05 1.67E-05 1.28E-06 6.57E-06
   7     6.00  492.000  263.6  1.06E+02 2.01E-03 1.89E+01 6.48E-03 8.55E-02 1.61E-02 1.05E+04 7.34E-06 1.51E-05 1.16E-06 4.88E-06
   8     7.00  432.000  257.0  5.84E+01 1.91E-03 1.70E+01 5.65E-03 7.69E-02 1.45E-02 9.46E+03 4.47E-06 1.36E-05 1.04E-06 3.76E-06
   9     8.00  378.000  250.3  3.11E+01 1.82E-03 1.53E+01 4.82E-03 6.90E-02 1.30E-02 8.50E+03 2.64E-06 1.22E-05 9.36E-07 2.93E-06
  10     9.00  329.000  243.6  1.49E+01 1.82E-03 1.36E+01 3.98E-03 6.16E-02 1.16E-02 7.60E+03 1.37E-06 1.09E-05 8.44E-07 2.39E-06
  11    10.00  286.000  237.0  6.22E+00 1.82E-03 1.22E+01 3.24E-03 5.48E-02 1.03E-02 6.79E+03 6.60E-07 9.75E-06 7.74E-07 1.98E-06
  12    11.00  247.000  230.1  2.11E+00 1.91E-03 1.08E+01 2.59E-03 4.84E-02 9.08E-03 6.04E+03 3.15E-07 8.68E-06 7.58E-07 1.67E-06
  13    12.00  213.000  223.6  7.45E-01 2.01E-03 9.62E+00 2.01E-03 4.27E-02 7.94E-03 5.36E+03 1.62E-07 7.70E-06 8.08E-07 1.44E-06
  14    13.00  182.000  217.0  2.24E-01 2.10E-03 8.47E+00 1.44E-03 3.72E-02 6.89E-03 4.72E+03 7.05E-08 6.76E-06 1.01E-06 1.26E-06
  15    14.00  156.000  210.3  1.24E-01 2.10E-03 7.49E+00 1.00E-03 3.25E-02 5.99E-03 4.18E+03 2.22E-08 5.90E-06 1.49E-06 1.13E-06
  16    15.00  132.000  203.7  6.98E-02 2.19E-03 6.55E+00 6.88E-04 2.80E-02 5.14E-03 3.65E+03 7.80E-09 4.94E-06 2.99E-06 1.00E-06
  17    16.00  111.000  197.0  4.55E-02 2.19E-03 5.69E+00 4.66E-04 2.40E-02 4.37E-03 3.17E+03 3.20E-09 4.07E-06 4.84E-06 8.73E-07
  18    17.00   93.700  194.8  3.76E-02 3.24E-03 4.86E+00 3.23E-04 2.01E-02 3.61E-03 2.71E+03 1.43E-09 3.27E-06 6.73E-06 6.96E-07
  19    18.00   78.900  198.8  2.94E-02 5.35E-03 4.01E+00 2.10E-04 1.63E-02 2.86E-03 2.23E+03 7.16E-10 2.57E-06 8.24E-06 5.11E-07
  20    19.00   66.600  202.7  2.30E-02 8.41E-03 3.32E+00 1.37E-04 1.31E-02 2.24E-03 1.85E+03 3.51E-10 2.16E-06 9.38E-06 3.51E-07
  21    20.00   56.500  206.7  1.91E-02 1.03E-02 2.76E+00 9.80E-05 1.05E-02 1.74E-03 1.54E+03 1.77E-10 1.88E-06 1.02E-05 2.35E-07
  22    21.00   48.000  210.7  1.63E-02 1.10E-02 2.30E+00 7.56E-05 8.32E-03 1.35E-03 1.28E+03 1.18E-10 1.70E-06 1.08E-05 1.64E-07
  23    22.00   40.900  214.6  1.44E-02 1.23E-02 1.93E+00 6.33E-05 6.53E-03 1.05E-03 1.07E+03 8.83E-11 1.58E-06 1.11E-05 1.17E-07
  24    23.00   35.000  217.0  1.26E-02 1.48E-02 1.63E+00 5.68E-05 5.18E-03 8.55E-04 9.08E+02 6.91E-11 1.56E-06 1.12E-05 8.99E-08
  25    24.00   30.000  219.2  1.18E-02 1.59E-02 1.38E+00 5.16E-05 4.12E-03 6.91E-04 7.71E+02 5.31E-11 1.66E-06 1.13E-05 7.01E-08
  26    25.00   25.700  221.4  1.02E-02 1.69E-02 1.17E+00 4.76E-05 3.30E-03 5.49E-04 6.54E+02 3.85E-11 2.14E-06 1.17E-05 5.47E-08
  27    30.00   12.200  232.3  5.66E-03 1.32E-02 5.31E-01 2.82E-05 1.29E-03 2.00E-04 2.96E+02 8.98E-12 3.47E-06 8.72E-06 1.90E-08
  28    35.00    6.000  243.1  3.06E-03 6.45E-03 2.49E-01 1.65E-05 4.96E-04 6.17E-05 1.39E+02 1.21E-12 4.75E-06 4.84E-06 7.71E-09
  29    40.00    3.050  254.0  1.68E-03 2.43E-03 1.21E-01 1.00E-05 1.82E-04 1.46E-05 6.76E+01 9.51E-14 3.62E-06 1.30E-06 4.40E-09
  30    45.00    1.590  264.8  9.22E-04 7.28E-04 6.07E-02 6.45E-06 5.87E-05 2.57E-06 3.38E+01 4.82E-15 1.89E-06 1.86E-07 3.40E-09
  31    50.00    0.854  270.2  5.11E-04 2.38E-04 3.19E-02 4.34E-06 1.79E-05 4.05E-07 1.78E+01 6.07E-16 8.77E-07 3.77E-08 3.03E-09
  32    70.00    0.058  218.9  3.21E-05 2.14E-06 2.68E-03 1.38E-06 1.07E-06 8.20E-09 1.49E+00 1.83E-17 8.21E-08 1.65E-09 3.08E-10
  33   100.00    0.000  190.7  1.63E-08 1.63E-08 9.05E-06 6.96E-07 4.90E-09 1.36E-11 6.53E-03 6.04E-20 8.49E-08 6.94E-12 1.46E-14
1
  ATMOSPHERIC PROFILES

   I      Z       P       T     CFC-11   CFC-12   CFC-13   CFC-14   CFC-22   CFC-113  CFC-114  CFC-115  CLONO2    HNO4    CHCL2F 
                                 CCL4     N2O5  
         (KM)    (MB)    (K)  (                                 ATM CM/KM                                                     )
   1     0.00 1013.000  299.7  1.27E-05 2.19E-05 9.11E-14 9.11E-14 5.46E-06 1.73E-06 1.09E-06 9.11E-14 5.24E-07 3.95E-08 9.11E-14
                               1.18E-05 2.20E-11
   2     1.00  904.000  293.7  1.16E-05 1.99E-05 8.29E-14 8.29E-14 4.97E-06 1.58E-06 9.95E-07 8.29E-14 4.25E-07 1.77E-07 8.29E-14
                               1.08E-05 7.91E-11
   3     2.00  805.000  287.7  1.06E-05 1.81E-05 7.54E-14 7.54E-14 4.52E-06 1.43E-06 9.05E-07 7.54E-14 3.40E-07 2.89E-07 7.54E-14
                               9.80E-06 1.26E-10
   4     3.00  715.000  283.7  9.51E-06 1.63E-05 6.79E-14 6.79E-14 4.06E-06 1.29E-06 8.15E-07 6.79E-14 2.64E-07 3.76E-07 6.79E-14
                               8.83E-06 1.61E-10
   5     4.00  633.000  277.0  8.62E-06 1.48E-05 6.16E-14 6.16E-14 3.68E-06 1.17E-06 7.39E-07 6.16E-14 2.01E-07 4.46E-07 6.16E-14
                               8.00E-06 1.90E-10
   6     5.00  559.000  270.3  7.80E-06 1.34E-05 5.57E-14 5.57E-14 3.33E-06 1.06E-06 6.69E-07 5.57E-14 1.53E-07 1.01E-06 5.57E-14
                               7.23E-06 2.01E-10
   7     6.00  492.000  263.6  7.04E-06 1.21E-05 5.03E-14 5.03E-14 3.00E-06 9.55E-07 6.03E-07 5.03E-14 1.13E-07 1.46E-06 5.03E-14
                               6.51E-06 2.07E-10
   8     7.00  432.000  257.0  6.34E-06 1.09E-05 4.53E-14 4.53E-14 2.70E-06 8.60E-07 5.43E-07 4.53E-14 7.90E-08 1.81E-06 4.53E-14
                               5.86E-06 2.10E-10
   9     8.00  378.000  250.3  5.70E-06 9.76E-06 4.07E-14 4.07E-14 2.43E-06 7.73E-07 4.88E-07 4.07E-14 5.04E-08 2.07E-06 4.07E-14
                               5.25E-06 2.10E-10
  10     9.00  329.000  243.6  5.09E-06 8.72E-06 3.64E-14 3.64E-14 2.17E-06 6.91E-07 4.37E-07 3.64E-14 4.40E-08 1.79E-06 3.64E-14
                               4.69E-06 2.10E-10
  11    10.00  286.000  237.0  4.54E-06 7.79E-06 3.25E-14 3.25E-14 1.94E-06 6.16E-07 3.90E-07 3.25E-14 3.82E-08 1.54E-06 3.25E-14
                               4.19E-06 2.07E-10
  12    11.00  247.000  230.1  4.03E-06 6.92E-06 2.89E-14 2.89E-14 1.72E-06 5.47E-07 3.47E-07 2.89E-14 3.31E-08 1.32E-06 2.89E-14
                               3.73E-06 2.02E-10
  13    12.00  213.000  223.6  3.57E-06 6.13E-06 2.57E-14 2.57E-14 1.53E-06 4.85E-07 3.08E-07 2.57E-14 2.85E-08 1.12E-06 2.57E-14
                               3.31E-06 1.94E-10
  14    13.00  182.000  217.0  3.05E-06 5.32E-06 2.26E-14 2.26E-14 1.33E-06 4.19E-07 2.68E-07 2.26E-14 1.81E-07 1.28E-06 2.26E-14
                               2.82E-06 9.96E-09
  15    14.00  156.000  210.3  2.62E-06 4.64E-06 2.00E-14 2.00E-14 1.17E-06 3.64E-07 2.35E-07 2.00E-14 2.98E-07 1.39E-06 2.00E-14
                               2.42E-06 1.75E-08
  16    15.00  132.000  203.7  2.22E-06 3.99E-06 1.75E-14 1.75E-14 1.01E-06 3.12E-07 2.03E-07 1.75E-14 3.81E-07 1.44E-06 1.75E-14
                               2.04E-06 2.28E-08
  17    16.00  111.000  197.0  1.87E-06 3.42E-06 1.52E-14 1.52E-14 8.68E-07 2.66E-07 1.75E-07 1.52E-14 4.36E-07 1.44E-06 1.52E-14
                               1.72E-06 2.64E-08
  18    17.00   93.700  194.8  1.46E-06 2.78E-06 1.30E-14 1.30E-14 7.21E-07 2.14E-07 1.45E-07 1.30E-14 1.32E-06 1.85E-06 1.30E-14
                               1.32E-06 1.14E-07
  19    18.00   78.900  198.8  1.09E-06 2.19E-06 1.07E-14 1.07E-14 5.78E-07 1.66E-07 1.16E-07 1.07E-14 1.86E-06 2.03E-06 1.07E-14
                               9.69E-07 1.69E-07
  20    19.00   66.600  202.7  8.05E-07 1.72E-06 8.85E-15 8.85E-15 4.65E-07 1.29E-07 9.32E-08 8.85E-15 2.19E-06 2.10E-06 8.85E-15
                               7.03E-07 2.02E-07
  21    20.00   56.500  206.7  5.91E-07 1.35E-06 7.36E-15 7.36E-15 3.75E-07 1.00E-07 7.51E-08 7.36E-15 2.36E-06 2.10E-06 7.36E-15
                               5.02E-07 2.20E-07
  22    21.00   48.000  210.7  4.21E-07 1.05E-06 6.14E-15 6.14E-15 3.00E-07 7.60E-08 5.99E-08 6.14E-15 2.82E-06 2.16E-06 6.14E-15
                               3.51E-07 2.54E-07
  23    22.00   40.900  214.6  2.93E-07 8.11E-07 5.13E-15 5.13E-15 2.41E-07 5.73E-08 4.78E-08 5.13E-15 3.08E-06 2.15E-06 5.13E-15
                               2.37E-07 2.72E-07
  24    23.00   35.000  217.0  1.98E-07 6.30E-07 4.35E-15 4.35E-15 1.95E-07 4.32E-08 3.85E-08 4.35E-15 3.22E-06 2.11E-06 4.35E-15
                               1.52E-07 2.80E-07
  25    24.00   30.000  219.2  1.25E-07 4.87E-07 3.69E-15 3.69E-15 1.59E-07 3.21E-08 3.10E-08 3.69E-15 3.24E-06 2.04E-06 3.69E-15
                               8.85E-08 2.81E-07
  26    25.00   25.700  221.4  8.53E-08 3.72E-07 3.13E-15 3.13E-15 1.28E-07 2.38E-08 2.49E-08 3.13E-15 3.04E-06 1.82E-06 3.13E-15
                               5.89E-08 2.41E-07
  27    30.00   12.200  232.3  5.52E-09 8.33E-08 1.41E-15 1.41E-15 4.28E-08 4.12E-09 7.97E-09 1.41E-15 1.61E-06 7.22E-07 1.41E-15
                               2.48E-09 7.81E-08
  28    35.00    6.000  243.1  1.32E-10 1.42E-08 6.65E-16 6.65E-16 1.38E-08 4.77E-10 2.43E-09 6.65E-16 3.48E-07 9.77E-08 6.65E-16
                               2.63E-11 7.19E-09
  29    40.00    3.050  254.0  5.98E-13 1.97E-09 3.23E-16 3.23E-16 4.50E-09 3.98E-11 7.50E-10 3.23E-16 1.38E-08 3.22E-09 3.23E-16
                               1.28E-14 6.89E-11
  30    45.00    1.590  264.8  1.49E-14 3.45E-10 1.62E-16 1.62E-16 1.68E-09 5.20E-12 2.62E-10 1.62E-16 2.72E-10 1.41E-10 1.62E-16
                               9.01E-17 6.37E-13
  31    50.00    0.854  270.2  5.08E-16 7.25E-11 8.51E-17 8.51E-17 7.48E-10 8.43E-13 1.06E-10 8.51E-17 3.97E-12 6.50E-12 8.51E-17
                               9.31E-19 5.35E-15
  32    70.00    0.058  218.9  3.63E-21 2.79E-13 7.14E-18 7.14E-18 5.13E-11 1.25E-15 4.18E-12 7.14E-18 5.16E-19 2.29E-16 7.14E-18
                               7.05E-26 5.85E-23
  33   100.00    0.000  190.7  1.27E-30 1.01E-18 4.08E-20 4.08E-20 7.31E-14 5.35E-22 8.70E-16 4.08E-20 3.30E-35 1.36E-31 4.08E-20
                               2.08E-38 0.00E+00


 CASE 3A: GIVEN H1,H2=SPACE,ANGLE



 SLANT PATH PARAMETERS IN STANDARD FORM

          H1      =      1.000 KM
          H2      =    100.000 KM
          ANGLE   =      0.000 DEG
          PHI     =    180.000 DEG
          HMIN    =      1.000 KM
          LEN     =          0
1CALCULATION OF THE REFRACTED PATH THROUGH THE ATMOSPHERE


  I       ALTITUDE        THETA  DRANGE    RANGE    DBETA     BETA     PHI     DBEND  BENDING    PBAR    TBAR   RHOBAR
      FROM       TO
      (KM)      (KM)      (DEG)    (KM)     (KM)    (DEG)    (DEG)    (DEG)    (DEG)    (DEG)    (MB)    (K)  (GM CM-3)

          H1 TO H2

  1    1.000    2.000    0.000    1.000    1.000    0.000    0.000  180.000    0.000    0.000  854.330  290.74 1.02E-03
  2    2.000    3.000    0.000    1.000    2.000    0.000    0.000  180.000    0.000    0.000  759.895  285.73 9.26E-04
  3    3.000    4.000    0.000    1.000    3.000    0.000    0.000  180.000    0.000    0.000  673.837  280.39 8.36E-04
  4    4.000    5.000    0.000    1.000    4.000    0.000    0.000  180.000    0.000    0.000  595.849  273.69 7.58E-04
  5    5.000    6.000    0.000    1.000    5.000    0.000    0.000  180.000    0.000    0.000  525.360  266.99 6.85E-04
  6    6.000    7.000    0.000    1.000    6.000    0.000    0.000  180.000    0.000    0.000  461.873  260.34 6.17E-04
  7    7.000    8.000    0.000    1.000    7.000    0.000    0.000  180.000    0.000    0.000  404.881  253.70 5.55E-04
  8    8.000    9.000    0.000    1.000    8.000    0.000    0.000  180.000    0.000    0.000  353.389  247.00 4.98E-04
  9    9.000   10.000    0.000    1.000    9.000    0.000    0.000  180.000    0.000    0.000  307.402  240.35 4.45E-04
 10   10.000   11.000    0.000    1.000   10.000    0.000    0.000  180.000    0.000    0.000  266.404  233.60 3.97E-04
 11   11.000   12.000    0.000    1.000   11.000    0.000    0.000  180.000    0.000    0.000  229.919  226.90 3.52E-04
 12   12.000   13.000    0.000    1.000   12.000    0.000    0.000  180.000    0.000    0.000  197.423  220.35 3.12E-04
 13   13.000   14.000    0.000    1.000   13.000    0.000    0.000  180.000    0.000    0.000  168.932  213.70 2.75E-04
 14   14.000   15.000    0.000    1.000   14.000    0.000    0.000  180.000    0.000    0.000  143.936  207.06 2.42E-04
 15   15.000   16.000    0.000    1.000   15.000    0.000    0.000  180.000    0.000    0.000  121.442  200.41 2.11E-04
 16   16.000   17.000    0.000    1.000   16.000    0.000    0.000  180.000    0.000    0.000  102.334  195.93 1.82E-04
 17   17.000   18.000    0.000    1.000   17.000    0.000    0.000  180.000    0.000    0.000   86.325  196.73 1.52E-04
 18   18.000   19.000    0.000    1.000   18.000    0.000    0.000  180.000    0.000    0.000   72.770  200.68 1.26E-04
 19   19.000   20.000    0.000    1.000   19.000    0.000    0.000  180.000    0.000    0.000   61.566  204.63 1.05E-04
 20   20.000   21.000    0.000    1.000   20.000    0.000    0.000  180.000    0.000    0.000   52.264  208.63 8.71E-05
 21   21.000   22.000    0.000    1.000   21.000    0.000    0.000  180.000    0.000    0.000   44.461  212.59 7.27E-05
 22   22.000   23.000    0.000    1.000   22.000    0.000    0.000  180.000    0.000    0.000   37.955  215.76 6.11E-05
 23   23.000   24.000    0.000    1.000   23.000    0.000    0.000  180.000    0.000    0.000   32.504  218.07 5.18E-05
 24   24.000   25.000    0.000    1.000   24.000    0.000    0.000  180.000    0.000    0.000   27.854  220.27 4.40E-05
 25   25.000   30.000    0.000    5.000   29.000    0.000    0.000  180.000    0.000    0.000   19.003  226.09 2.79E-05
 26   30.000   35.000    0.000    5.000   34.000    0.000    0.000  180.000    0.000    0.000    9.123  236.99 1.28E-05
 27   35.000   40.000    0.000    5.000   39.000    0.000    0.000  180.000    0.000    0.000    4.536  247.86 6.13E-06
 28   40.000   45.000    0.000    5.000   44.000    0.000    0.000  180.000    0.000    0.000    2.325  258.74 3.02E-06
 29   45.000   50.000    0.000    5.000   49.000    0.000    0.000  180.000    0.000    0.000    1.223  267.20 1.54E-06
 30   50.000   70.000    0.000   20.000   69.000    0.000    0.000  180.000    0.000    0.000    0.445  253.37 4.07E-07
 31   70.000  100.000    0.000   30.000   99.000    0.000    0.000  180.000    0.000    0.000    0.029  213.36 1.78E-08




1CUMULATIVE ABSORBER AMOUNTS FOR THE PATH FROM H1 TO Z

  J     Z        TBAR     HNO3        O3 UV      CNTMSLF1   CNTMSLF2    CNTMFRN      O2
       (KM)       (K)   (ATM CM)    (ATM CM)    (MOL CM-2)  (MOL CM-2)  (MOL CM-2)(MOL CM-2)

  1    2.000   290.74   5.086E-06   2.565E-03   5.542E+20   8.101E+19   3.117E+22   2.740E+04
  2    3.000   285.73   1.039E-05   5.014E-03   7.663E+20   1.415E+20   4.852E+22   5.126E+04
  3    4.000   280.39   1.581E-05   7.298E-03   8.174E+20   1.637E+20   5.623E+22   7.205E+04
  4    5.000   273.69   2.126E-05   9.443E-03   8.326E+20   1.731E+20   6.010E+22   9.027E+04
  5    6.000   266.99   2.677E-05   1.150E-02   8.386E+20   1.780E+20   6.230E+22   1.062E+05
  6    7.000   260.34   3.241E-05   1.345E-02   8.405E+20   1.798E+20   6.341E+22   1.201E+05
  7    8.000   253.70   3.810E-05   1.532E-02   8.411E+20   1.805E+20   6.396E+22   1.323E+05
  8    9.000   247.00   4.371E-05   1.714E-02   8.413E+20   1.807E+20   6.420E+22   1.429E+05
  9   10.000   240.35   4.933E-05   1.896E-02   8.413E+20   1.808E+20   6.430E+22   1.522E+05
 10   11.000   233.60   5.508E-05   2.082E-02   8.413E+20   1.808E+20   6.434E+22   1.602E+05
 11   12.000   226.90   6.110E-05   2.278E-02   8.413E+20   1.808E+20   6.435E+22   1.672E+05
 12   13.000   220.35   6.731E-05   2.483E-02   8.413E+20   1.808E+20   6.435E+22   1.733E+05
 13   14.000   213.70   7.376E-05   2.693E-02   8.413E+20   1.808E+20   6.435E+22   1.785E+05
 14   15.000   207.06   8.104E-05   2.908E-02   8.413E+20   1.808E+20   6.435E+22   1.830E+05
 15   16.000   200.41   9.059E-05   3.127E-02   8.413E+20   1.808E+20   6.435E+22   1.869E+05
 16   17.000   195.93   1.047E-04   3.399E-02   8.413E+20   1.808E+20   6.435E+22   1.902E+05
 17   18.000   196.73   1.245E-04   3.828E-02   8.413E+20   1.808E+20   6.435E+22   1.929E+05
 18   19.000   200.68   1.498E-04   4.516E-02   8.413E+20   1.808E+20   6.435E+22   1.951E+05
 19   20.000   204.63   1.793E-04   5.452E-02   8.413E+20   1.808E+20   6.435E+22   1.969E+05
 20   21.000   208.63   2.099E-04   6.519E-02   8.413E+20   1.808E+20   6.435E+22   1.984E+05
 21   22.000   212.59   2.391E-04   7.688E-02   8.413E+20   1.808E+20   6.435E+22   1.996E+05
 22   23.000   215.76   2.656E-04   9.043E-02   8.413E+20   1.808E+20   6.435E+22   2.006E+05
 23   24.000   218.07   2.888E-04   1.057E-01   8.413E+20   1.808E+20   6.435E+22   2.015E+05
 24   25.000   220.27   3.083E-04   1.221E-01   8.413E+20   1.808E+20   6.435E+22   2.022E+05
 25   30.000   226.09   3.594E-04   1.968E-01   8.413E+20   1.808E+20   6.435E+22   2.045E+05
 26   35.000   236.99   3.727E-04   2.439E-01   8.413E+20   1.808E+20   6.435E+22   2.056E+05
 27   40.000   247.86   3.752E-04   2.645E-01   8.413E+20   1.808E+20   6.435E+22   2.061E+05
 28   45.000   258.74   3.756E-04   2.715E-01   8.413E+20   1.808E+20   6.435E+22   2.063E+05
 29   50.000   267.20   3.756E-04   2.737E-01   8.413E+20   1.808E+20   6.435E+22   2.064E+05
 30   70.000   253.37   3.757E-04   2.747E-01   8.413E+20   1.808E+20   6.435E+22   2.066E+05
 31  100.000   213.36   3.757E-04   2.747E-01   8.413E+20   1.808E+20   6.435E+22   2.066E+05



1 J     Z       N2 CONT    MOL SCAT       AER 1       AER 2       AER 3       AER 4       CIRRUS
       (KM)

  1    2.000   5.755E-01   7.914E-01   2.812E-01   0.000E+00   0.000E+00   0.000E+00   0.000E+00
  2    3.000   1.047E+00   1.508E+00   3.122E-01   1.730E-02   0.000E+00   0.000E+00   0.000E+00
  3    4.000   1.432E+00   2.155E+00   3.122E-01   4.302E-02   0.000E+00   0.000E+00   0.000E+00
  4    5.000   1.747E+00   2.741E+00   3.122E-01   5.640E-02   0.000E+00   0.000E+00   0.000E+00
  5    6.000   2.005E+00   3.271E+00   3.122E-01   6.488E-02   0.000E+00   0.000E+00   0.000E+00
  6    7.000   2.215E+00   3.749E+00   3.122E-01   7.183E-02   0.000E+00   0.000E+00   0.000E+00
  7    8.000   2.385E+00   4.178E+00   3.122E-01   7.648E-02   0.000E+00   0.000E+00   0.000E+00
  8    9.000   2.521E+00   4.564E+00   3.122E-01   7.900E-02   0.000E+00   0.000E+00   0.000E+00
  9   10.000   2.630E+00   4.908E+00   3.122E-01   8.045E-02   0.000E+00   0.000E+00   0.000E+00
 10   11.000   2.717E+00   5.215E+00   3.122E-01   8.102E-02   3.995E-04   0.000E+00   0.000E+00
 11   12.000   2.785E+00   5.488E+00   3.122E-01   8.102E-02   1.117E-03   0.000E+00   0.000E+00
 12   13.000   2.839E+00   5.729E+00   3.122E-01   8.102E-02   1.693E-03   0.000E+00   0.000E+00
 13   14.000   2.880E+00   5.942E+00   3.122E-01   8.102E-02   2.172E-03   0.000E+00   0.000E+00
 14   15.000   2.912E+00   6.129E+00   3.122E-01   8.102E-02   2.590E-03   0.000E+00   0.000E+00
 15   16.000   2.937E+00   6.292E+00   3.122E-01   8.102E-02   2.978E-03   0.000E+00   0.000E+00
 16   17.000   2.955E+00   6.432E+00   3.122E-01   8.102E-02   3.382E-03   0.000E+00   0.000E+00
 17   18.000   2.968E+00   6.550E+00   3.122E-01   8.102E-02   3.854E-03   0.000E+00   0.000E+00
 18   19.000   2.977E+00   6.648E+00   3.122E-01   8.102E-02   4.405E-03   0.000E+00   0.000E+00
 19   20.000   2.983E+00   6.729E+00   3.122E-01   8.102E-02   4.990E-03   0.000E+00   0.000E+00
 20   21.000   2.987E+00   6.796E+00   3.122E-01   8.102E-02   5.534E-03   0.000E+00   0.000E+00
 21   22.000   2.990E+00   6.852E+00   3.122E-01   8.102E-02   5.994E-03   0.000E+00   0.000E+00
 22   23.000   2.992E+00   6.899E+00   3.122E-01   8.102E-02   6.351E-03   0.000E+00   0.000E+00
 23   24.000   2.993E+00   6.940E+00   3.122E-01   8.102E-02   6.596E-03   0.000E+00   0.000E+00
 24   25.000   2.994E+00   6.974E+00   3.122E-01   8.102E-02   6.758E-03   0.000E+00   0.000E+00
 25   30.000   2.997E+00   7.082E+00   3.122E-01   8.102E-02   7.115E-03   0.000E+00   0.000E+00
 26   35.000   2.997E+00   7.131E+00   3.122E-01   8.102E-02   7.198E-03   4.100E-05   0.000E+00
 27   40.000   2.997E+00   7.155E+00   3.122E-01   8.102E-02   7.198E-03   9.948E-05   0.000E+00
 28   45.000   2.997E+00   7.167E+00   3.122E-01   8.102E-02   7.198E-03   1.283E-04   0.000E+00
 29   50.000   2.997E+00   7.173E+00   3.122E-01   8.102E-02   7.198E-03   1.431E-04   0.000E+00
 30   70.000   2.997E+00   7.179E+00   3.122E-01   8.102E-02   7.198E-03   1.582E-04   0.000E+00
 31  100.000   2.997E+00   7.179E+00   3.122E-01   8.102E-02   7.198E-03   1.591E-04   0.000E+00



1  J    Z       H2O       O3        CO2       CO        CH4       N2O       O2        NH3       NO        NO2       SO2
      (KM)    (                                                      ATM CM                                             )

   1    2.00  1.37E+03  2.57E-03  2.97E+01  1.13E-02  1.34E-01  2.53E-02  1.65E+04  3.81E-05  2.37E-05  1.82E-06  2.02E-05
   2    3.00  2.21E+03  5.01E-03  5.65E+01  2.11E-02  2.56E-01  4.82E-02  3.15E+04  6.82E-05  4.52E-05  3.47E-06  3.54E-05
   3    4.00  2.62E+03  7.30E-03  8.08E+01  2.97E-02  3.66E-01  6.89E-02  4.50E+04  8.97E-05  6.46E-05  4.95E-06  4.62E-05
   4    5.00  2.85E+03  9.44E-03  1.03E+02  3.74E-02  4.66E-01  8.77E-02  5.73E+04  1.04E-04  8.22E-05  6.30E-06  5.39E-05
   5    6.00  2.99E+03  1.15E-02  1.23E+02  4.42E-02  5.56E-01  1.05E-01  6.83E+04  1.13E-04  9.81E-05  7.52E-06  5.96E-05
   6    7.00  3.07E+03  1.35E-02  1.40E+02  5.03E-02  6.37E-01  1.20E-01  7.83E+04  1.19E-04  1.12E-04  8.62E-06  6.39E-05
   7    8.00  3.11E+03  1.53E-02  1.57E+02  5.55E-02  7.10E-01  1.34E-01  8.73E+04  1.23E-04  1.25E-04  9.60E-06  6.72E-05
   8    9.00  3.13E+03  1.71E-02  1.71E+02  5.99E-02  7.75E-01  1.46E-01  9.53E+04  1.24E-04  1.37E-04  1.05E-05  6.99E-05
   9   10.00  3.14E+03  1.90E-02  1.84E+02  6.35E-02  8.33E-01  1.57E-01  1.03E+05  1.25E-04  1.47E-04  1.13E-05  7.21E-05
  10   11.00  3.15E+03  2.08E-02  1.95E+02  6.64E-02  8.85E-01  1.67E-01  1.09E+05  1.26E-04  1.56E-04  1.21E-05  7.39E-05
  11   12.00  3.15E+03  2.28E-02  2.06E+02  6.87E-02  9.30E-01  1.75E-01  1.15E+05  1.26E-04  1.65E-04  1.29E-05  7.54E-05
  12   13.00  3.15E+03  2.48E-02  2.15E+02  7.04E-02  9.70E-01  1.82E-01  1.20E+05  1.26E-04  1.72E-04  1.38E-05  7.68E-05
  13   14.00  3.15E+03  2.69E-02  2.23E+02  7.16E-02  1.00E+00  1.89E-01  1.24E+05  1.26E-04  1.78E-04  1.50E-05  7.80E-05
  14   15.00  3.15E+03  2.91E-02  2.30E+02  7.24E-02  1.03E+00  1.94E-01  1.28E+05  1.26E-04  1.83E-04  1.72E-05  7.90E-05
  15   16.00  3.15E+03  3.13E-02  2.36E+02  7.30E-02  1.06E+00  1.99E-01  1.31E+05  1.26E-04  1.88E-04  2.12E-05  8.00E-05
  16   17.00  3.15E+03  3.40E-02  2.41E+02  7.34E-02  1.08E+00  2.03E-01  1.34E+05  1.26E-04  1.92E-04  2.69E-05  8.07E-05
  17   18.00  3.15E+03  3.83E-02  2.45E+02  7.37E-02  1.10E+00  2.06E-01  1.37E+05  1.26E-04  1.95E-04  3.44E-05  8.13E-05
  18   19.00  3.15E+03  4.52E-02  2.49E+02  7.38E-02  1.12E+00  2.09E-01  1.39E+05  1.26E-04  1.97E-04  4.32E-05  8.18E-05
  19   20.00  3.15E+03  5.45E-02  2.52E+02  7.39E-02  1.13E+00  2.11E-01  1.41E+05  1.26E-04  1.99E-04  5.31E-05  8.21E-05
  20   21.00  3.15E+03  6.52E-02  2.55E+02  7.40E-02  1.14E+00  2.12E-01  1.42E+05  1.26E-04  2.01E-04  6.36E-05  8.23E-05
  21   22.00  3.15E+03  7.69E-02  2.57E+02  7.41E-02  1.14E+00  2.14E-01  1.43E+05  1.26E-04  2.02E-04  7.45E-05  8.24E-05
  22   23.00  3.15E+03  9.04E-02  2.59E+02  7.42E-02  1.15E+00  2.15E-01  1.44E+05  1.26E-04  2.04E-04  8.57E-05  8.25E-05
  23   24.00  3.15E+03  1.06E-01  2.60E+02  7.42E-02  1.15E+00  2.15E-01  1.45E+05  1.26E-04  2.05E-04  9.69E-05  8.26E-05
  24   25.00  3.15E+03  1.22E-01  2.61E+02  7.43E-02  1.16E+00  2.16E-01  1.46E+05  1.26E-04  2.07E-04  1.08E-04  8.26E-05
  25   30.00  3.15E+03  1.97E-01  2.65E+02  7.44E-02  1.17E+00  2.18E-01  1.48E+05  1.26E-04  2.21E-04  1.59E-04  8.28E-05
  26   35.00  3.15E+03  2.44E-01  2.67E+02  7.46E-02  1.17E+00  2.18E-01  1.49E+05  1.26E-04  2.42E-04  1.92E-04  8.29E-05
  27   40.00  3.15E+03  2.64E-01  2.68E+02  7.46E-02  1.17E+00  2.18E-01  1.49E+05  1.26E-04  2.63E-04  2.05E-04  8.29E-05
  28   45.00  3.15E+03  2.72E-01  2.69E+02  7.47E-02  1.18E+00  2.19E-01  1.50E+05  1.26E-04  2.76E-04  2.08E-04  8.29E-05
  29   50.00  3.15E+03  2.74E-01  2.69E+02  7.47E-02  1.18E+00  2.19E-01  1.50E+05  1.26E-04  2.83E-04  2.09E-04  8.29E-05
  30   70.00  3.15E+03  2.75E-01  2.69E+02  7.47E-02  1.18E+00  2.19E-01  1.50E+05  1.26E-04  2.89E-04  2.09E-04  8.30E-05
  31  100.00  3.15E+03  2.75E-01  2.69E+02  7.48E-02  1.18E+00  2.19E-01  1.50E+05  1.26E-04  2.92E-04  2.09E-04  8.30E-05



1  J    Z      CFC-11    CFC-12    CFC-13    CFC-14    CFC-22    CFC-113   CFC-114   CFC-115   CLONO2     HNO4     CHCL2F 
                CCL4      N2O5  
      (KM)    (                                                   ATM CM                                                )

   1    2.00  1.11E-05  1.90E-05  7.91E-14  7.91E-14  4.74E-06  1.50E-06  9.49E-07  7.91E-14  3.81E-07  2.33E-07  7.91E-14
              1.03E-05  1.02E-10
   2    3.00  2.11E-05  3.62E-05  1.51E-13  1.51E-13  9.02E-06  2.86E-06  1.81E-06  1.51E-13  6.81E-07  5.66E-07  1.51E-13
              1.96E-05  2.46E-10
   3    4.00  3.01E-05  5.17E-05  2.15E-13  2.15E-13  1.29E-05  4.09E-06  2.58E-06  2.15E-13  9.12E-07  9.77E-07  2.15E-13
              2.80E-05  4.22E-10
   4    5.00  3.83E-05  6.57E-05  2.74E-13  2.74E-13  1.64E-05  5.20E-06  3.29E-06  2.74E-13  1.09E-06  1.71E-06  2.74E-13
              3.56E-05  6.17E-10
   5    6.00  4.58E-05  7.85E-05  3.27E-13  3.27E-13  1.96E-05  6.21E-06  3.92E-06  3.27E-13  1.22E-06  2.94E-06  3.27E-13
              4.25E-05  8.22E-10
   6    7.00  5.24E-05  8.99E-05  3.75E-13  3.75E-13  2.24E-05  7.12E-06  4.50E-06  3.75E-13  1.31E-06  4.58E-06  3.75E-13
              4.86E-05  1.03E-09
   7    8.00  5.85E-05  1.00E-04  4.18E-13  4.18E-13  2.50E-05  7.93E-06  5.01E-06  4.18E-13  1.38E-06  6.52E-06  4.18E-13
              5.42E-05  1.24E-09
   8    9.00  6.38E-05  1.09E-04  4.56E-13  4.56E-13  2.73E-05  8.66E-06  5.47E-06  4.56E-13  1.43E-06  8.44E-06  4.56E-13
              5.92E-05  1.45E-09
   9   10.00  6.86E-05  1.18E-04  4.90E-13  4.90E-13  2.93E-05  9.32E-06  5.89E-06  4.90E-13  1.47E-06  1.01E-05  4.90E-13
              6.36E-05  1.66E-09
  10   11.00  7.29E-05  1.25E-04  5.21E-13  5.21E-13  3.12E-05  9.90E-06  6.25E-06  5.21E-13  1.50E-06  1.15E-05  5.21E-13
              6.76E-05  1.86E-09
  11   12.00  7.67E-05  1.32E-04  5.48E-13  5.48E-13  3.28E-05  1.04E-05  6.58E-06  5.48E-13  1.53E-06  1.27E-05  5.48E-13
              7.11E-05  2.06E-09
  12   13.00  8.00E-05  1.37E-04  5.72E-13  5.72E-13  3.42E-05  1.09E-05  6.87E-06  5.72E-13  1.64E-06  1.39E-05  5.72E-13
              7.41E-05  7.14E-09
  13   14.00  8.28E-05  1.42E-04  5.94E-13  5.94E-13  3.55E-05  1.13E-05  7.12E-06  5.94E-13  1.88E-06  1.53E-05  5.94E-13
              7.67E-05  2.08E-08
  14   15.00  8.53E-05  1.47E-04  6.12E-13  6.12E-13  3.65E-05  1.16E-05  7.34E-06  6.12E-13  2.22E-06  1.67E-05  6.12E-13
              7.90E-05  4.10E-08
  15   16.00  8.73E-05  1.50E-04  6.29E-13  6.29E-13  3.75E-05  1.19E-05  7.53E-06  6.29E-13  2.62E-06  1.81E-05  6.29E-13
              8.08E-05  6.56E-08
  16   17.00  8.90E-05  1.53E-04  6.43E-13  6.43E-13  3.83E-05  1.21E-05  7.69E-06  6.43E-13  3.50E-06  1.98E-05  6.43E-13
              8.24E-05  1.36E-07
  17   18.00  9.02E-05  1.56E-04  6.55E-13  6.55E-13  3.89E-05  1.23E-05  7.82E-06  6.55E-13  5.09E-06  2.17E-05  6.55E-13
              8.35E-05  2.77E-07
  18   19.00  9.12E-05  1.58E-04  6.64E-13  6.64E-13  3.94E-05  1.25E-05  7.92E-06  6.64E-13  7.12E-06  2.38E-05  6.64E-13
              8.43E-05  4.63E-07
  19   20.00  9.18E-05  1.59E-04  6.72E-13  6.72E-13  3.98E-05  1.26E-05  8.00E-06  6.72E-13  9.39E-06  2.59E-05  6.72E-13
              8.49E-05  6.74E-07
  20   21.00  9.23E-05  1.60E-04  6.79E-13  6.79E-13  4.02E-05  1.27E-05  8.07E-06  6.79E-13  1.20E-05  2.80E-05  6.79E-13
              8.53E-05  9.11E-07
  21   22.00  9.27E-05  1.61E-04  6.85E-13  6.85E-13  4.05E-05  1.27E-05  8.12E-06  6.85E-13  1.49E-05  3.02E-05  6.85E-13
              8.56E-05  1.17E-06
  22   23.00  9.29E-05  1.62E-04  6.89E-13  6.89E-13  4.07E-05  1.28E-05  8.17E-06  6.89E-13  1.81E-05  3.23E-05  6.89E-13
              8.58E-05  1.45E-06
  23   24.00  9.31E-05  1.63E-04  6.93E-13  6.93E-13  4.08E-05  1.28E-05  8.20E-06  6.93E-13  2.13E-05  3.44E-05  6.93E-13
              8.59E-05  1.73E-06
  24   25.00  9.32E-05  1.63E-04  6.97E-13  6.97E-13  4.10E-05  1.28E-05  8.23E-06  6.97E-13  2.44E-05  3.63E-05  6.97E-13
              8.60E-05  1.99E-06
  25   30.00  9.33E-05  1.64E-04  7.08E-13  7.08E-13  4.14E-05  1.29E-05  8.30E-06  7.08E-13  3.57E-05  4.22E-05  7.08E-13
              8.61E-05  2.71E-06
  26   35.00  9.34E-05  1.64E-04  7.13E-13  7.13E-13  4.15E-05  1.29E-05  8.33E-06  7.13E-13  3.98E-05  4.38E-05  7.13E-13
              8.61E-05  2.86E-06
  27   40.00  9.34E-05  1.64E-04  7.15E-13  7.15E-13  4.15E-05  1.29E-05  8.33E-06  7.15E-13  4.04E-05  4.39E-05  7.15E-13
              8.61E-05  2.87E-06
  28   45.00  9.34E-05  1.64E-04  7.16E-13  7.16E-13  4.16E-05  1.29E-05  8.34E-06  7.16E-13  4.04E-05  4.39E-05  7.16E-13
              8.61E-05  2.87E-06
  29   50.00  9.34E-05  1.64E-04  7.17E-13  7.17E-13  4.16E-05  1.29E-05  8.34E-06  7.17E-13  4.04E-05  4.39E-05  7.17E-13
              8.61E-05  2.87E-06
  30   70.00  9.34E-05  1.64E-04  7.17E-13  7.17E-13  4.16E-05  1.29E-05  8.34E-06  7.17E-13  4.04E-05  4.39E-05  7.17E-13
              8.61E-05  2.87E-06
  31  100.00  9.34E-05  1.64E-04  7.17E-13  7.17E-13  4.16E-05  1.29E-05  8.34E-06  7.17E-13  4.04E-05  4.39E-05  7.17E-13
              8.61E-05  2.87E-06


0SUMMARY OF THE GEOMETRY CALCULATION

          H1      =      1.000 KM
          H2      =    100.000 KM
          ANGLE   =      0.000 DEG
          RANGE   =     99.000 KM
          BETA    =      0.000 DEG
          PHI     =    180.000 DEG
          HMIN    =      1.000 KM
          BENDING =      0.000 DEG
          LEN     =          0




1EQUIVALENT SEA LEVEL TOTAL ABSORBER AMOUNTS

                 HNO3      O3 UV       CNTMSLF1    CNTMSLF2   CNTMFRN
               (ATM CM)   (ATM CM)     (MOL CM-2)  (MOL CM-2)  (MOL CM-2)  (MOL CM-2)

             3.757E-04   2.747E-01   8.413E+20   1.808E+20   6.435E+22


              N2 CONT    MOL SCAT       AER 1       AER 2       AER 3       AER 4     CIRRUS      MEAN RH
                                                                                                  (PRCNT)

             2.997E+00   7.179E+00   3.122E-01   8.102E-02   7.198E-03   1.591E-04   0.000E+00       73.45


                 H2O        O3          CO2         CO          CH4         N2O          O2
               (                                        ATM CM                            )

             3.150E+03   2.747E-01   2.690E+02   7.477E-02   1.176E+00   2.185E-01   1.499E+05

                 NH3        NO          NO2         SO2
                 (               ATM CM               )

             1.263E-04   2.919E-04   2.091E-04   8.296E-05

             CFC-11      CFC-12      CFC-13      CFC-14      CFC-22      CFC-113     CFC-114
                 (                                      ATM CM                            )

             9.336E-05   1.643E-04   7.175E-13   7.175E-13   4.158E-05   1.290E-05   8.339E-06

             CFC-115     CLONO2       HNO4       CHCL2F       CCL4        N2O5  
                 (                                      ATM CM                            )

             7.175E-13   4.037E-05   4.392E-05   7.175E-13   8.610E-05   2.871E-06
1                                             RADIANCE(WATTS/CM2-STER-XXX)
0  FREQ   WAVLEN    PATH THERMAL      SURFACE EMISSION    SURFACE REFLECTED     TOTAL RADIANCE   INTEGRAL    TOTAL
  (CM-1) (MICRN)    (CM-1)   (MICRN)    (CM-1)   (MICRN)    (CM-1)   (MICRN)    (CM-1)   (MICRN)    (CM-1)   TRANS

    100. 100.000  1.88E-06  1.88E-06  0.00E+00  0.00E+00  0.00E+00  0.00E+00  1.88E-06  1.88E-06  1.88E-06  0.00000
    102.  98.039  1.95E-06  2.03E-06  0.00E+00  0.00E+00  0.00E+00  0.00E+00  1.95E-06  2.03E-06  5.78E-06  0.00000
    104.  96.154  2.01E-06  2.18E-06  0.00E+00  0.00E+00  0.00E+00  0.00E+00  2.01E-06  2.18E-06  9.80E-06  0.00000
    106.  94.340  2.08E-06  2.34E-06  0.00E+00  0.00E+00  0.00E+00  0.00E+00  2.08E-06  2.34E-06  1.40E-05  0.00000
    108.  92.593  2.15E-06  2.51E-06  0.00E+00  0.00E+00  0.00E+00  0.00E+00  2.15E-06  2.51E-06  1.83E-05  0.00000
    110.  90.909  2.22E-06  2.68E-06  0.00E+00  0.00E+00  0.00E+00  0.00E+00  2.22E-06  2.68E-06  2.27E-05  0.00000
    112.  89.286  2.29E-06  2.87E-06  0.00E+00  0.00E+00  0.00E+00  0.00E+00  2.29E-06  2.87E-06  2.73E-05  0.00000
    114.  87.719  2.36E-06  3.06E-06  0.00E+00  0.00E+00  0.00E+00  0.00E+00  2.36E-06  3.06E-06  3.20E-05  0.00000
    116.  86.207  2.43E-06  3.26E-06  0.00E+00  0.00E+00  0.00E+00  0.00E+00  2.43E-06  3.26E-06  3.68E-05  0.00000
    118.  84.746  2.50E-06  3.48E-06  0.00E+00  0.00E+00  0.00E+00  0.00E+00  2.50E-06  3.48E-06  4.18E-05  0.00000
    120.  83.333  2.57E-06  3.70E-06  0.00E+00  0.00E+00  0.00E+00  0.00E+00  2.57E-06  3.70E-06  4.70E-05  0.00000
    122.  81.967  2.64E-06  3.93E-06  0.00E+00  0.00E+00  0.00E+00  0.00E+00  2.64E-06  3.93E-06  5.22E-05  0.00000
    124.  80.645  2.71E-06  4.17E-06  0.00E+00  0.00E+00  0.00E+00  0.00E+00  2.71E-06  4.17E-06  5.77E-05  0.00000
    126.  79.365  2.79E-06  4.42E-06  0.00E+00  0.00E+00  0.00E+00  0.00E+00  2.79E-06  4.42E-06  6.32E-05  0.00000
    128.  78.125  2.86E-06  4.69E-06  0.00E+00  0.00E+00  0.00E+00  0.00E+00  2.86E-06  4.69E-06  6.90E-05  0.00000
    130.  76.923  2.93E-06  4.96E-06  0.00E+00  0.00E+00  0.00E+00  0.00E+00  2.93E-06  4.96E-06  7.48E-05  0.00000
    132.  75.758  3.01E-06  5.24E-06  0.00E+00  0.00E+00  0.00E+00  0.00E+00  3.01E-06  5.24E-06  8.08E-05  0.00000
    134.  74.627  3.08E-06  5.54E-06  0.00E+00  0.00E+00  0.00E+00  0.00E+00  3.08E-06  5.54E-06  8.70E-05  0.00000
    136.  73.529  3.16E-06  5.84E-06  0.00E+00  0.00E+00  0.00E+00  0.00E+00  3.16E-06  5.84E-06  9.33E-05  0.00000
    138.  72.464  3.23E-06  6.16E-06  0.00E+00  0.00E+00  0.00E+00  0.00E+00  3.23E-06  6.16E-06  9.98E-05  0.00000
    140.  71.429  3.31E-06  6.49E-06  0.00E+00  0.00E+00  0.00E+00  0.00E+00  3.31E-06  6.49E-06  1.06E-04  0.00000
    142.  70.423  3.39E-06  6.83E-06  0.00E+00  0.00E+00  0.00E+00  0.00E+00  3.39E-06  6.83E-06  1.13E-04  0.00000
    144.  69.444  3.46E-06  7.18E-06  0.00E+00  0.00E+00  0.00E+00  0.00E+00  3.46E-06  7.18E-06  1.20E-04  0.00000
    146.  68.493  3.54E-06  7.55E-06  0.00E+00  0.00E+00  0.00E+00  0.00E+00  3.54E-06  7.55E-06  1.27E-04  0.00000
    148.  67.568  3.62E-06  7.93E-06  0.00E+00  0.00E+00  0.00E+00  0.00E+00  3.62E-06  7.93E-06  1.34E-04  0.00000
    150.  66.667  3.70E-06  8.32E-06  0.00E+00  0.00E+00  0.00E+00  0.00E+00  3.70E-06  8.32E-06  1.42E-04  0.00000
    152.  65.789  3.78E-06  8.73E-06  0.00E+00  0.00E+00  0.00E+00  0.00E+00  3.78E-06  8.73E-06  1.49E-04  0.00000
    154.  64.935  3.86E-06  9.14E-06  0.00E+00  0.00E+00  0.00E+00  0.00E+00  3.86E-06  9.14E-06  1.57E-04  0.00000
    156.  64.103  3.93E-06  9.58E-06  0.00E+00  0.00E+00  0.00E+00  0.00E+00  3.93E-06  9.58E-06  1.65E-04  0.00000
    158.  63.291  4.01E-06  1.00E-05  0.00E+00  0.00E+00  0.00E+00  0.00E+00  4.01E-06  1.00E-05  1.73E-04  0.00000
    160.  62.500  4.09E-06  1.05E-05  0.00E+00  0.00E+00  0.00E+00  0.00E+00  4.09E-06  1.05E-05  1.81E-04  0.00000
    162.  61.728  4.17E-06  1.10E-05  0.00E+00  0.00E+00  0.00E+00  0.00E+00  4.17E-06  1.10E-05  1.90E-04  0.00000
    164.  60.976  4.25E-06  1.14E-05  0.00E+00  0.00E+00  0.00E+00  0.00E+00  4.25E-06  1.14E-05  1.98E-04  0.00000
    166.  60.241  4.33E-06  1.19E-05  0.00E+00  0.00E+00  0.00E+00  0.00E+00  4.33E-06  1.19E-05  2.07E-04  0.00000
    168.  59.524  4.41E-06  1.25E-05  0.00E+00  0.00E+00  0.00E+00  0.00E+00  4.41E-06  1.25E-05  2.16E-04  0.00000
    170.  58.824  4.49E-06  1.30E-05  0.00E+00  0.00E+00  0.00E+00  0.00E+00  4.49E-06  1.30E-05  2.25E-04  0.00000
    172.  58.140  4.58E-06  1.35E-05  0.00E+00  0.00E+00  0.00E+00  0.00E+00  4.58E-06  1.35E-05  2.34E-04  0.00000
    174.  57.471  4.66E-06  1.41E-05  0.00E+00  0.00E+00  0.00E+00  0.00E+00  4.66E-06  1.41E-05  2.43E-04  0.00000
    176.  56.818  4.74E-06  1.47E-05  0.00E+00  0.00E+00  0.00E+00  0.00E+00  4.74E-06  1.47E-05  2.52E-04  0.00000
    178.  56.180  4.82E-06  1.53E-05  0.00E+00  0.00E+00  0.00E+00  0.00E+00  4.82E-06  1.53E-05  2.62E-04  0.00000
    180.  55.556  4.90E-06  1.59E-05  0.00E+00  0.00E+00  0.00E+00  0.00E+00  4.90E-06  1.59E-05  2.72E-04  0.00000
    182.  54.945  4.98E-06  1.65E-05  0.00E+00  0.00E+00  0.00E+00  0.00E+00  4.98E-06  1.65E-05  2.82E-04  0.00000
    184.  54.348  5.06E-06  1.71E-05  0.00E+00  0.00E+00  0.00E+00  0.00E+00  5.06E-06  1.71E-05  2.92E-04  0.00000
    186.  53.763  5.14E-06  1.78E-05  0.00E+00  0.00E+00  0.00E+00  0.00E+00  5.14E-06  1.78E-05  3.02E-04  0.00000
    188.  53.191  5.23E-06  1.85E-05  0.00E+00  0.00E+00  0.00E+00  0.00E+00  5.23E-06  1.85E-05  3.13E-04  0.00000
    190.  52.632  5.31E-06  1.92E-05  0.00E+00  0.00E+00  0.00E+00  0.00E+00  5.31E-06  1.92E-05  3.23E-04  0.00000
    192.  52.083  5.39E-06  1.99E-05  0.00E+00  0.00E+00  0.00E+00  0.00E+00  5.39E-06  1.99E-05  3.34E-04  0.00000
    194.  51.546  5.47E-06  2.06E-05  0.00E+00  0.00E+00  0.00E+00  0.00E+00  5.47E-06  2.06E-05  3.45E-04  0.00000
    196.  51.020  5.55E-06  2.13E-05  0.00E+00  0.00E+00  0.00E+00  0.00E+00  5.55E-06  2.13E-05  3.56E-04  0.00000
    198.  50.505  5.63E-06  2.21E-05  0.00E+00  0.00E+00  0.00E+00  0.00E+00  5.63E-06  2.21E-05  3.67E-04  0.00000
1                                             RADIANCE(WATTS/CM2-STER-XXX)
0  FREQ   WAVLEN    PATH THERMAL      SURFACE EMISSION    SURFACE REFLECTED     TOTAL RADIANCE   INTEGRAL    TOTAL
  (CM-1) (MICRN)    (CM-1)   (MICRN)    (CM-1)   (MICRN)    (CM-1)   (MICRN)    (CM-1)   (MICRN)    (CM-1)   TRANS

    200.  50.000  5.72E-06  2.29E-05  0.00E+00  0.00E+00  0.00E+00  0.00E+00  5.72E-06  2.29E-05  3.79E-04  0.00000
    202.  49.505  5.80E-06  2.37E-05  0.00E+00  0.00E+00  0.00E+00  0.00E+00  5.80E-06  2.37E-05  3.90E-04  0.00000
    204.  49.020  5.88E-06  2.45E-05  0.00E+00  0.00E+00  0.00E+00  0.00E+00  5.88E-06  2.45E-05  4.02E-04  0.00000
    206.  48.544  5.96E-06  2.53E-05  0.00E+00  0.00E+00  0.00E+00  0.00E+00  5.96E-06  2.53E-05  4.14E-04  0.00000
    208.  48.077  6.04E-06  2.61E-05  0.00E+00  0.00E+00  0.00E+00  0.00E+00  6.04E-06  2.61E-05  4.26E-04  0.00000
    210.  47.619  6.12E-06  2.70E-05  0.00E+00  0.00E+00  0.00E+00  0.00E+00  6.12E-06  2.70E-05  4.38E-04  0.00000
    212.  47.170  6.21E-06  2.79E-05  0.00E+00  0.00E+00  0.00E+00  0.00E+00  6.21E-06  2.79E-05  4.51E-04  0.00000
    214.  46.729  6.29E-06  2.88E-05  0.00E+00  0.00E+00  0.00E+00  0.00E+00  6.29E-06  2.88E-05  4.63E-04  0.00000
    216.  46.296  6.37E-06  2.97E-05  0.00E+00  0.00E+00  0.00E+00  0.00E+00  6.37E-06  2.97E-05  4.76E-04  0.00000
    218.  45.872  6.45E-06  3.07E-05  0.00E+00  0.00E+00  0.00E+00  0.00E+00  6.45E-06  3.07E-05  4.89E-04  0.00000
    220.  45.455  6.53E-06  3.16E-05  0.00E+00  0.00E+00  0.00E+00  0.00E+00  6.53E-06  3.16E-05  5.02E-04  0.00000
    222.  45.045  6.61E-06  3.26E-05  0.00E+00  0.00E+00  0.00E+00  0.00E+00  6.61E-06  3.26E-05  5.15E-04  0.00000
    224.  44.643  6.69E-06  3.36E-05  0.00E+00  0.00E+00  0.00E+00  0.00E+00  6.69E-06  3.36E-05  5.29E-04  0.00000
    226.  44.248  6.77E-06  3.46E-05  0.00E+00  0.00E+00  0.00E+00  0.00E+00  6.77E-06  3.46E-05  5.42E-04  0.00000
    228.  43.860  6.85E-06  3.56E-05  0.00E+00  0.00E+00  0.00E+00  0.00E+00  6.85E-06  3.56E-05  5.56E-04  0.00000
    230.  43.478  6.93E-06  3.67E-05  0.00E+00  0.00E+00  0.00E+00  0.00E+00  6.93E-06  3.67E-05  5.70E-04  0.00000
    232.  43.103  7.02E-06  3.78E-05  0.00E+00  0.00E+00  0.00E+00  0.00E+00  7.02E-06  3.78E-05  5.84E-04  0.00000
    234.  42.735  7.10E-06  3.89E-05  0.00E+00  0.00E+00  0.00E+00  0.00E+00  7.10E-06  3.89E-05  5.98E-04  0.00000
    236.  42.373  7.18E-06  4.00E-05  0.00E+00  0.00E+00  0.00E+00  0.00E+00  7.18E-06  4.00E-05  6.12E-04  0.00000
    238.  42.017  7.25E-06  4.11E-05  0.00E+00  0.00E+00  0.00E+00  0.00E+00  7.25E-06  4.11E-05  6.27E-04  0.00000
    240.  41.667  7.33E-06  4.22E-05  0.00E+00  0.00E+00  0.00E+00  0.00E+00  7.33E-06  4.22E-05  6.42E-04  0.00000
    242.  41.322  7.41E-06  4.34E-05  0.00E+00  0.00E+00  0.00E+00  0.00E+00  7.41E-06  4.34E-05  6.56E-04  0.00000
    244.  40.984  7.49E-06  4.46E-05  0.00E+00  0.00E+00  0.00E+00  0.00E+00  7.49E-06  4.46E-05  6.71E-04  0.00000
    246.  40.650  7.57E-06  4.58E-05  0.00E+00  0.00E+00  0.00E+00  0.00E+00  7.57E-06  4.58E-05  6.87E-04  0.00000
    248.  40.323  7.65E-06  4.71E-05  0.00E+00  0.00E+00  0.00E+00  0.00E+00  7.65E-06  4.71E-05  7.02E-04  0.00000
    250.  40.000  7.73E-06  4.83E-05  0.00E+00  0.00E+00  0.00E+00  0.00E+00  7.73E-06  4.83E-05  7.17E-04  0.00000
    252.  39.683  7.81E-06  4.96E-05  0.00E+00  0.00E+00  0.00E+00  0.00E+00  7.81E-06  4.96E-05  7.33E-04  0.00000
    254.  39.370  7.88E-06  5.09E-05  0.00E+00  0.00E+00  0.00E+00  0.00E+00  7.88E-06  5.09E-05  7.49E-04  0.00000
    256.  39.063  7.96E-06  5.22E-05  0.00E+00  0.00E+00  0.00E+00  0.00E+00  7.96E-06  5.22E-05  7.65E-04  0.00000
    258.  38.760  8.04E-06  5.35E-05  0.00E+00  0.00E+00  0.00E+00  0.00E+00  8.04E-06  5.35E-05  7.81E-04  0.00000
    260.  38.462  8.12E-06  5.49E-05  0.00E+00  0.00E+00  0.00E+00  0.00E+00  8.12E-06  5.49E-05  7.97E-04  0.00000
    262.  38.168  8.19E-06  5.62E-05  0.00E+00  0.00E+00  0.00E+00  0.00E+00  8.19E-06  5.62E-05  8.13E-04  0.00000
    264.  37.879  8.27E-06  5.76E-05  0.00E+00  0.00E+00  0.00E+00  0.00E+00  8.27E-06  5.76E-05  8.30E-04  0.00000
    266.  37.594  8.35E-06  5.90E-05  0.00E+00  0.00E+00  0.00E+00  0.00E+00  8.35E-06  5.90E-05  8.47E-04  0.00000
    268.  37.313  8.42E-06  6.05E-05  0.00E+00  0.00E+00  0.00E+00  0.00E+00  8.42E-06  6.05E-05  8.63E-04  0.00000
    270.  37.037  8.50E-06  6.19E-05  0.00E+00  0.00E+00  0.00E+00  0.00E+00  8.50E-06  6.19E-05  8.80E-04  0.00000
    272.  36.765  8.57E-06  6.34E-05  0.00E+00  0.00E+00  0.00E+00  0.00E+00  8.57E-06  6.34E-05  8.98E-04  0.00000
    274.  36.496  8.65E-06  6.49E-05  0.00E+00  0.00E+00  0.00E+00  0.00E+00  8.65E-06  6.49E-05  9.15E-04  0.00000
    276.  36.232  8.72E-06  6.64E-05  0.00E+00  0.00E+00  0.00E+00  0.00E+00  8.72E-06  6.64E-05  9.32E-04  0.00000
    278.  35.971  8.79E-06  6.80E-05  0.00E+00  0.00E+00  0.00E+00  0.00E+00  8.79E-06  6.80E-05  9.50E-04  0.00000
    280.  35.714  8.87E-06  6.95E-05  0.00E+00  0.00E+00  0.00E+00  0.00E+00  8.87E-06  6.95E-05  9.68E-04  0.00000
    282.  35.461  8.94E-06  7.11E-05  0.00E+00  0.00E+00  0.00E+00  0.00E+00  8.94E-06  7.11E-05  9.86E-04  0.00000
    284.  35.211  9.01E-06  7.27E-05  0.00E+00  0.00E+00  0.00E+00  0.00E+00  9.01E-06  7.27E-05  1.00E-03  0.00000
    286.  34.965  9.09E-06  7.43E-05  0.00E+00  0.00E+00  0.00E+00  0.00E+00  9.09E-06  7.43E-05  1.02E-03  0.00000
    288.  34.722  9.16E-06  7.60E-05  0.00E+00  0.00E+00  0.00E+00  0.00E+00  9.16E-06  7.60E-05  1.04E-03  0.00000
    290.  34.483  9.23E-06  7.76E-05  0.00E+00  0.00E+00  0.00E+00  0.00E+00  9.23E-06  7.76E-05  1.06E-03  0.00000
    292.  34.247  9.30E-06  7.93E-05  0.00E+00  0.00E+00  0.00E+00  0.00E+00  9.30E-06  7.93E-05  1.08E-03  0.00000
    294.  34.014  9.37E-06  8.10E-05  0.00E+00  0.00E+00  0.00E+00  0.00E+00  9.37E-06  8.10E-05  1.10E-03  0.00000
    296.  33.784  9.44E-06  8.27E-05  0.00E+00  0.00E+00  0.00E+00  0.00E+00  9.44E-06  8.27E-05  1.11E-03  0.00000
    298.  33.557  9.51E-06  8.45E-05  0.00E+00  0.00E+00  0.00E+00  0.00E+00  9.51E-06  8.45E-05  1.13E-03  0.00000
1                                             RADIANCE(WATTS/CM2-STER-XXX)
0  FREQ   WAVLEN    PATH THERMAL      SURFACE EMISSION    SURFACE REFLECTED     TOTAL RADIANCE   INTEGRAL    TOTAL
  (CM-1) (MICRN)    (CM-1)   (MICRN)    (CM-1)   (MICRN)    (CM-1)   (MICRN)    (CM-1)   (MICRN)    (CM-1)   TRANS

    300.  33.333  9.58E-06  8.63E-05  0.00E+00  0.00E+00  0.00E+00  0.00E+00  9.58E-06  8.63E-05  1.15E-03  0.00000
    302.  33.113  9.65E-06  8.81E-05  0.00E+00  0.00E+00  0.00E+00  0.00E+00  9.65E-06  8.81E-05  1.17E-03  0.00000
    304.  32.895  9.72E-06  8.99E-05  0.00E+00  0.00E+00  0.00E+00  0.00E+00  9.72E-06  8.99E-05  1.19E-03  0.00000
    306.  32.680  9.79E-06  9.17E-05  0.00E+00  0.00E+00  0.00E+00  0.00E+00  9.79E-06  9.17E-05  1.21E-03  0.00000
    308.  32.468  9.86E-06  9.35E-05  0.00E+00  0.00E+00  0.00E+00  0.00E+00  9.86E-06  9.35E-05  1.23E-03  0.00000
    310.  32.258  9.93E-06  9.54E-05  0.00E+00  0.00E+00  0.00E+00  0.00E+00  9.93E-06  9.54E-05  1.25E-03  0.00000
    312.  32.051  1.00E-05  9.74E-05  0.00E+00  0.00E+00  0.00E+00  0.00E+00  1.00E-05  9.74E-05  1.27E-03  0.00000
    314.  31.847  1.01E-05  9.93E-05  0.00E+00  0.00E+00  0.00E+00  0.00E+00  1.01E-05  9.93E-05  1.29E-03  0.00000
    316.  31.646  1.01E-05  1.01E-04  0.00E+00  0.00E+00  0.00E+00  0.00E+00  1.01E-05  1.01E-04  1.31E-03  0.00000
    318.  31.447  1.02E-05  1.03E-04  0.00E+00  0.00E+00  0.00E+00  0.00E+00  1.02E-05  1.03E-04  1.33E-03  0.00000
    320.  31.250  1.03E-05  1.05E-04  0.00E+00  0.00E+00  0.00E+00  0.00E+00  1.03E-05  1.05E-04  1.35E-03  0.00000
    322.  31.056  1.03E-05  1.07E-04  0.00E+00  0.00E+00  0.00E+00  0.00E+00  1.03E-05  1.07E-04  1.37E-03  0.00000
    324.  30.864  1.04E-05  1.09E-04  0.00E+00  0.00E+00  0.00E+00  0.00E+00  1.04E-05  1.09E-04  1.39E-03  0.00000
    326.  30.675  1.05E-05  1.11E-04  0.00E+00  0.00E+00  0.00E+00  0.00E+00  1.05E-05  1.11E-04  1.41E-03  0.00000
    328.  30.488  1.05E-05  1.13E-04  0.00E+00  0.00E+00  0.00E+00  0.00E+00  1.05E-05  1.13E-04  1.44E-03  0.00000
    330.  30.303  1.06E-05  1.15E-04  0.00E+00  0.00E+00  0.00E+00  0.00E+00  1.06E-05  1.15E-04  1.46E-03  0.00000
    332.  30.120  1.07E-05  1.17E-04  0.00E+00  0.00E+00  0.00E+00  0.00E+00  1.07E-05  1.17E-04  1.48E-03  0.00000
    334.  29.940  1.07E-05  1.19E-04  0.00E+00  0.00E+00  0.00E+00  0.00E+00  1.07E-05  1.19E-04  1.50E-03  0.00000
    336.  29.762  1.08E-05  1.22E-04  0.00E+00  0.00E+00  0.00E+00  0.00E+00  1.08E-05  1.22E-04  1.52E-03  0.00000
    338.  29.586  1.08E-05  1.24E-04  0.00E+00  0.00E+00  0.00E+00  0.00E+00  1.08E-05  1.24E-04  1.54E-03  0.00000
    340.  29.412  1.09E-05  1.26E-04  0.00E+00  0.00E+00  0.00E+00  0.00E+00  1.09E-05  1.26E-04  1.56E-03  0.00000
    342.  29.240  1.10E-05  1.28E-04  0.00E+00  0.00E+00  0.00E+00  0.00E+00  1.10E-05  1.28E-04  1.59E-03  0.00000
    344.  29.070  1.10E-05  1.30E-04  0.00E+00  0.00E+00  0.00E+00  0.00E+00  1.10E-05  1.30E-04  1.61E-03  0.00000
    346.  28.902  1.11E-05  1.33E-04  0.00E+00  0.00E+00  0.00E+00  0.00E+00  1.11E-05  1.33E-04  1.63E-03  0.00000
    348.  28.736  1.11E-05  1.35E-04  0.00E+00  0.00E+00  0.00E+00  0.00E+00  1.11E-05  1.35E-04  1.65E-03  0.00000
    350.  28.571  1.12E-05  1.37E-04  0.00E+00  0.00E+00  0.00E+00  0.00E+00  1.12E-05  1.37E-04  1.68E-03  0.00000
    352.  28.409  1.12E-05  1.39E-04  0.00E+00  0.00E+00  0.00E+00  0.00E+00  1.12E-05  1.39E-04  1.70E-03  0.00000
    354.  28.249  1.13E-05  1.42E-04  0.00E+00  0.00E+00  0.00E+00  0.00E+00  1.13E-05  1.42E-04  1.72E-03  0.00000
    356.  28.090  1.14E-05  1.44E-04  0.00E+00  0.00E+00  0.00E+00  0.00E+00  1.14E-05  1.44E-04  1.74E-03  0.00000
    358.  27.933  1.14E-05  1.46E-04  0.00E+00  0.00E+00  0.00E+00  0.00E+00  1.14E-05  1.46E-04  1.77E-03  0.00000
    360.  27.778  1.15E-05  1.49E-04  0.00E+00  0.00E+00  0.00E+00  0.00E+00  1.15E-05  1.49E-04  1.79E-03  0.00000
    362.  27.624  1.15E-05  1.51E-04  0.00E+00  0.00E+00  0.00E+00  0.00E+00  1.15E-05  1.51E-04  1.81E-03  0.00000
    364.  27.473  1.16E-05  1.53E-04  0.00E+00  0.00E+00  0.00E+00  0.00E+00  1.16E-05  1.53E-04  1.83E-03  0.00000
    366.  27.322  1.16E-05  1.56E-04  0.00E+00  0.00E+00  0.00E+00  0.00E+00  1.16E-05  1.56E-04  1.86E-03  0.00000
    368.  27.174  1.17E-05  1.58E-04  0.00E+00  0.00E+00  0.00E+00  0.00E+00  1.17E-05  1.58E-04  1.88E-03  0.00000
    370.  27.027  1.17E-05  1.61E-04  0.00E+00  0.00E+00  0.00E+00  0.00E+00  1.17E-05  1.61E-04  1.91E-03  0.00000
    372.  26.882  1.18E-05  1.63E-04  0.00E+00  0.00E+00  0.00E+00  0.00E+00  1.18E-05  1.63E-04  1.93E-03  0.00000
    374.  26.738  1.18E-05  1.66E-04  0.00E+00  0.00E+00  0.00E+00  0.00E+00  1.18E-05  1.66E-04  1.95E-03  0.00000
    376.  26.596  1.19E-05  1.68E-04  0.00E+00  0.00E+00  0.00E+00  0.00E+00  1.19E-05  1.68E-04  1.98E-03  0.00000
    378.  26.455  1.19E-05  1.71E-04  0.00E+00  0.00E+00  0.00E+00  0.00E+00  1.19E-05  1.71E-04  2.00E-03  0.00000
    380.  26.316  1.20E-05  1.73E-04  0.00E+00  0.00E+00  0.00E+00  0.00E+00  1.20E-05  1.73E-04  2.02E-03  0.00000
    382.  26.178  1.20E-05  1.76E-04  0.00E+00  0.00E+00  0.00E+00  0.00E+00  1.20E-05  1.76E-04  2.05E-03  0.00000
    384.  26.042  1.21E-05  1.78E-04  0.00E+00  0.00E+00  0.00E+00  0.00E+00  1.21E-05  1.78E-04  2.07E-03  0.00000
    386.  25.907  1.21E-05  1.81E-04  0.00E+00  0.00E+00  0.00E+00  0.00E+00  1.21E-05  1.81E-04  2.10E-03  0.00000
    388.  25.773  1.22E-05  1.83E-04  0.00E+00  0.00E+00  0.00E+00  0.00E+00  1.22E-05  1.83E-04  2.12E-03  0.00000
    390.  25.641  1.22E-05  1.86E-04  0.00E+00  0.00E+00  0.00E+00  0.00E+00  1.22E-05  1.86E-04  2.15E-03  0.00000
    392.  25.510  1.23E-05  1.89E-04  0.00E+00  0.00E+00  0.00E+00  0.00E+00  1.23E-05  1.89E-04  2.17E-03  0.00000
    394.  25.381  1.23E-05  1.91E-04  0.00E+00  0.00E+00  0.00E+00  0.00E+00  1.23E-05  1.91E-04  2.19E-03  0.00000
    396.  25.253  1.24E-05  1.94E-04  0.00E+00  0.00E+00  0.00E+00  0.00E+00  1.24E-05  1.94E-04  2.22E-03  0.00000
    398.  25.126  1.24E-05  1.97E-04  0.00E+00  0.00E+00  0.00E+00  0.00E+00  1.24E-05  1.97E-04  2.24E-03  0.00000
1                                             RADIANCE(WATTS/CM2-STER-XXX)
0  FREQ   WAVLEN    PATH THERMAL      SURFACE EMISSION    SURFACE REFLECTED     TOTAL RADIANCE   INTEGRAL    TOTAL
  (CM-1) (MICRN)    (CM-1)   (MICRN)    (CM-1)   (MICRN)    (CM-1)   (MICRN)    (CM-1)   (MICRN)    (CM-1)   TRANS

    400.  25.000  1.25E-05  2.00E-04  0.00E+00  0.00E+00  0.00E+00  0.00E+00  1.25E-05  2.00E-04  2.27E-03  0.00000
    402.  24.876  1.25E-05  2.02E-04  0.00E+00  0.00E+00  0.00E+00  0.00E+00  1.25E-05  2.02E-04  2.29E-03  0.00000
    404.  24.752  1.25E-05  2.04E-04  0.00E+00  0.00E+00  0.00E+00  0.00E+00  1.25E-05  2.04E-04  2.32E-03  0.00000
    406.  24.631  1.26E-05  2.07E-04  0.00E+00  0.00E+00  0.00E+00  0.00E+00  1.26E-05  2.07E-04  2.34E-03  0.00000
    408.  24.510  1.26E-05  2.10E-04  0.00E+00  0.00E+00  0.00E+00  0.00E+00  1.26E-05  2.10E-04  2.37E-03  0.00000
    410.  24.390  1.26E-05  2.12E-04  0.00E+00  0.00E+00  0.00E+00  0.00E+00  1.26E-05  2.12E-04  2.39E-03  0.00000
    412.  24.272  1.27E-05  2.15E-04  0.00E+00  0.00E+00  0.00E+00  0.00E+00  1.27E-05  2.15E-04  2.42E-03  0.00000
    414.  24.155  1.27E-05  2.18E-04  0.00E+00  0.00E+00  0.00E+00  0.00E+00  1.27E-05  2.18E-04  2.45E-03  0.00000
    416.  24.038  1.28E-05  2.22E-04  0.00E+00  0.00E+00  0.00E+00  0.00E+00  1.28E-05  2.22E-04  2.47E-03  0.00000
    418.  23.923  1.29E-05  2.25E-04  0.00E+00  0.00E+00  0.00E+00  0.00E+00  1.29E-05  2.25E-04  2.50E-03  0.00000
    420.  23.810  1.29E-05  2.28E-04  0.00E+00  0.00E+00  0.00E+00  0.00E+00  1.29E-05  2.28E-04  2.52E-03  0.00000
    422.  23.697  1.29E-05  2.30E-04  0.00E+00  0.00E+00  0.00E+00  0.00E+00  1.29E-05  2.30E-04  2.55E-03  0.00000
    424.  23.585  1.30E-05  2.33E-04  0.00E+00  0.00E+00  0.00E+00  0.00E+00  1.30E-05  2.33E-04  2.57E-03  0.00000
    426.  23.474  1.30E-05  2.36E-04  0.00E+00  0.00E+00  0.00E+00  0.00E+00  1.30E-05  2.36E-04  2.60E-03  0.00000
    428.  23.364  1.30E-05  2.38E-04  0.00E+00  0.00E+00  0.00E+00  0.00E+00  1.30E-05  2.38E-04  2.63E-03  0.00000
    430.  23.256  1.30E-05  2.41E-04  0.00E+00  0.00E+00  0.00E+00  0.00E+00  1.30E-05  2.41E-04  2.65E-03  0.00000
    432.  23.148  1.31E-05  2.44E-04  0.00E+00  0.00E+00  0.00E+00  0.00E+00  1.31E-05  2.44E-04  2.68E-03  0.00000
    434.  23.041  1.31E-05  2.47E-04  0.00E+00  0.00E+00  0.00E+00  0.00E+00  1.31E-05  2.47E-04  2.70E-03  0.00000
    436.  22.936  1.31E-05  2.50E-04  0.00E+00  0.00E+00  0.00E+00  0.00E+00  1.31E-05  2.50E-04  2.73E-03  0.00000
    438.  22.831  1.32E-05  2.52E-04  0.00E+00  0.00E+00  0.00E+00  0.00E+00  1.32E-05  2.52E-04  2.76E-03  0.00000
    440.  22.727  1.32E-05  2.55E-04  0.00E+00  0.00E+00  0.00E+00  0.00E+00  1.32E-05  2.55E-04  2.78E-03  0.00000
    442.  22.624  1.33E-05  2.59E-04  0.00E+00  0.00E+00  0.00E+00  0.00E+00  1.33E-05  2.59E-04  2.81E-03  0.00000
    444.  22.523  1.33E-05  2.62E-04  0.00E+00  0.00E+00  0.00E+00  0.00E+00  1.33E-05  2.62E-04  2.84E-03  0.00000
    446.  22.422  1.33E-05  2.65E-04  0.00E+00  0.00E+00  0.00E+00  0.00E+00  1.33E-05  2.65E-04  2.86E-03  0.00000
    448.  22.321  1.33E-05  2.67E-04  0.00E+00  0.00E+00  0.00E+00  0.00E+00  1.33E-05  2.67E-04  2.89E-03  0.00000
    450.  22.222  1.33E-05  2.70E-04  0.00E+00  0.00E+00  0.00E+00  0.00E+00  1.33E-05  2.70E-04  2.92E-03  0.00000
    452.  22.124  1.34E-05  2.74E-04  0.00E+00  0.00E+00  0.00E+00  0.00E+00  1.34E-05  2.74E-04  2.94E-03  0.00000
    454.  22.026  1.34E-05  2.77E-04  0.00E+00  0.00E+00  0.00E+00  0.00E+00  1.34E-05  2.77E-04  2.97E-03  0.00000
    456.  21.930  1.35E-05  2.80E-04  0.00E+00  0.00E+00  0.00E+00  0.00E+00  1.35E-05  2.80E-04  3.00E-03  0.00000
    458.  21.834  1.35E-05  2.84E-04  0.00E+00  0.00E+00  0.00E+00  0.00E+00  1.35E-05  2.84E-04  3.02E-03  0.00000
    460.  21.739  1.35E-05  2.86E-04  0.00E+00  0.00E+00  0.00E+00  0.00E+00  1.35E-05  2.86E-04  3.05E-03  0.00000
    462.  21.645  1.35E-05  2.89E-04  0.00E+00  0.00E+00  0.00E+00  0.00E+00  1.35E-05  2.89E-04  3.08E-03  0.00000
    464.  21.552  1.35E-05  2.91E-04  0.00E+00  0.00E+00  0.00E+00  0.00E+00  1.35E-05  2.91E-04  3.11E-03  0.00002
    466.  21.459  1.35E-05  2.94E-04  0.00E+00  0.00E+00  0.00E+00  0.00E+00  1.35E-05  2.94E-04  3.13E-03  0.00001
    468.  21.368  1.36E-05  2.98E-04  0.00E+00  0.00E+00  0.00E+00  0.00E+00  1.36E-05  2.98E-04  3.16E-03  0.00000
    470.  21.277  1.36E-05  3.01E-04  0.00E+00  0.00E+00  0.00E+00  0.00E+00  1.36E-05  3.01E-04  3.19E-03  0.00000
    472.  21.186  1.37E-05  3.06E-04  0.00E+00  0.00E+00  0.00E+00  0.00E+00  1.37E-05  3.06E-04  3.21E-03  0.00000
    474.  21.097  1.37E-05  3.08E-04  0.00E+00  0.00E+00  0.00E+00  0.00E+00  1.37E-05  3.08E-04  3.24E-03  0.00000
    476.  21.008  1.37E-05  3.10E-04  0.00E+00  0.00E+00  0.00E+00  0.00E+00  1.37E-05  3.10E-04  3.27E-03  0.00000
    478.  20.921  1.37E-05  3.12E-04  0.00E+00  0.00E+00  0.00E+00  0.00E+00  1.37E-05  3.12E-04  3.30E-03  0.00019
    480.  20.833  1.37E-05  3.15E-04  0.00E+00  0.00E+00  0.00E+00  0.00E+00  1.37E-05  3.15E-04  3.32E-03  0.00014
    482.  20.747  1.38E-05  3.20E-04  0.00E+00  0.00E+00  0.00E+00  0.00E+00  1.38E-05  3.20E-04  3.35E-03  0.00000
    484.  20.661  1.38E-05  3.23E-04  0.00E+00  0.00E+00  0.00E+00  0.00E+00  1.38E-05  3.23E-04  3.38E-03  0.00000
    486.  20.576  1.38E-05  3.26E-04  0.00E+00  0.00E+00  0.00E+00  0.00E+00  1.38E-05  3.26E-04  3.41E-03  0.00000
    488.  20.492  1.37E-05  3.27E-04  0.00E+00  0.00E+00  0.00E+00  0.00E+00  1.37E-05  3.27E-04  3.43E-03  0.00045
    490.  20.408  1.38E-05  3.31E-04  0.00E+00  0.00E+00  0.00E+00  0.00E+00  1.38E-05  3.31E-04  3.46E-03  0.00027
    492.  20.325  1.39E-05  3.36E-04  0.00E+00  0.00E+00  0.00E+00  0.00E+00  1.39E-05  3.36E-04  3.49E-03  0.00000
    494.  20.243  1.38E-05  3.38E-04  0.00E+00  0.00E+00  0.00E+00  0.00E+00  1.38E-05  3.38E-04  3.52E-03  0.00024
    496.  20.161  1.38E-05  3.38E-04  0.00E+00  0.00E+00  0.00E+00  0.00E+00  1.38E-05  3.38E-04  3.54E-03  0.00212
    498.  20.080  1.38E-05  3.42E-04  0.00E+00  0.00E+00  0.00E+00  0.00E+00  1.38E-05  3.42E-04  3.57E-03  0.00224
1                                             RADIANCE(WATTS/CM2-STER-XXX)
0  FREQ   WAVLEN    PATH THERMAL      SURFACE EMISSION    SURFACE REFLECTED     TOTAL RADIANCE   INTEGRAL    TOTAL
  (CM-1) (MICRN)    (CM-1)   (MICRN)    (CM-1)   (MICRN)    (CM-1)   (MICRN)    (CM-1)   (MICRN)    (CM-1)   TRANS

    500.  20.000  1.39E-05  3.47E-04  0.00E+00  0.00E+00  0.00E+00  0.00E+00  1.39E-05  3.47E-04  3.60E-03  0.00036
    502.  19.920  1.40E-05  3.52E-04  0.00E+00  0.00E+00  0.00E+00  0.00E+00  1.40E-05  3.52E-04  3.63E-03  0.00000
    504.  19.841  1.40E-05  3.55E-04  0.00E+00  0.00E+00  0.00E+00  0.00E+00  1.40E-05  3.55E-04  3.66E-03  0.00000
    506.  19.763  1.40E-05  3.59E-04  0.00E+00  0.00E+00  0.00E+00  0.00E+00  1.40E-05  3.59E-04  3.68E-03  0.00000
    508.  19.685  1.40E-05  3.61E-04  0.00E+00  0.00E+00  0.00E+00  0.00E+00  1.40E-05  3.61E-04  3.71E-03  0.00012
    510.  19.608  1.40E-05  3.63E-04  0.00E+00  0.00E+00  0.00E+00  0.00E+00  1.40E-05  3.63E-04  3.74E-03  0.00013
    512.  19.531  1.39E-05  3.65E-04  0.00E+00  0.00E+00  0.00E+00  0.00E+00  1.39E-05  3.65E-04  3.77E-03  0.00085
    514.  19.455  1.40E-05  3.69E-04  0.00E+00  0.00E+00  0.00E+00  0.00E+00  1.40E-05  3.69E-04  3.80E-03  0.00083
    516.  19.380  1.41E-05  3.75E-04  0.00E+00  0.00E+00  0.00E+00  0.00E+00  1.41E-05  3.75E-04  3.82E-03  0.00000
    518.  19.305  1.41E-05  3.79E-04  0.00E+00  0.00E+00  0.00E+00  0.00E+00  1.41E-05  3.79E-04  3.85E-03  0.00000
    520.  19.231  1.41E-05  3.81E-04  0.00E+00  0.00E+00  0.00E+00  0.00E+00  1.41E-05  3.81E-04  3.88E-03  0.00000
    522.  19.157  1.40E-05  3.81E-04  0.00E+00  0.00E+00  0.00E+00  0.00E+00  1.40E-05  3.81E-04  3.91E-03  0.00100
    524.  19.084  1.41E-05  3.86E-04  0.00E+00  0.00E+00  0.00E+00  0.00E+00  1.41E-05  3.86E-04  3.94E-03  0.00041
    526.  19.011  1.41E-05  3.91E-04  0.00E+00  0.00E+00  0.00E+00  0.00E+00  1.41E-05  3.91E-04  3.96E-03  0.00000
    528.  18.939  1.40E-05  3.90E-04  0.00E+00  0.00E+00  0.00E+00  0.00E+00  1.40E-05  3.90E-04  3.99E-03  0.00234
    530.  18.868  1.38E-05  3.87E-04  0.00E+00  0.00E+00  0.00E+00  0.00E+00  1.38E-05  3.87E-04  4.02E-03  0.01329
    532.  18.797  1.37E-05  3.87E-04  0.00E+00  0.00E+00  0.00E+00  0.00E+00  1.37E-05  3.87E-04  4.05E-03  0.01871
    534.  18.727  1.39E-05  3.97E-04  0.00E+00  0.00E+00  0.00E+00  0.00E+00  1.39E-05  3.97E-04  4.08E-03  0.00580
    536.  18.657  1.41E-05  4.04E-04  0.00E+00  0.00E+00  0.00E+00  0.00E+00  1.41E-05  4.04E-04  4.10E-03  0.00140
    538.  18.587  1.38E-05  4.00E-04  0.00E+00  0.00E+00  0.00E+00  0.00E+00  1.38E-05  4.00E-04  4.13E-03  0.01236
    540.  18.519  1.38E-05  4.03E-04  0.00E+00  0.00E+00  0.00E+00  0.00E+00  1.38E-05  4.03E-04  4.16E-03  0.01270
    542.  18.450  1.39E-05  4.09E-04  0.00E+00  0.00E+00  0.00E+00  0.00E+00  1.39E-05  4.09E-04  4.19E-03  0.00684
    544.  18.382  1.40E-05  4.14E-04  0.00E+00  0.00E+00  0.00E+00  0.00E+00  1.40E-05  4.14E-04  4.21E-03  0.00491
    546.  18.315  1.42E-05  4.23E-04  0.00E+00  0.00E+00  0.00E+00  0.00E+00  1.42E-05  4.23E-04  4.24E-03  0.00001
    548.  18.248  1.41E-05  4.24E-04  0.00E+00  0.00E+00  0.00E+00  0.00E+00  1.41E-05  4.24E-04  4.27E-03  0.00132
    550.  18.182  1.41E-05  4.27E-04  0.00E+00  0.00E+00  0.00E+00  0.00E+00  1.41E-05  4.27E-04  4.30E-03  0.00142
    552.  18.116  1.38E-05  4.22E-04  0.00E+00  0.00E+00  0.00E+00  0.00E+00  1.38E-05  4.22E-04  4.33E-03  0.01422
    554.  18.051  1.40E-05  4.29E-04  0.00E+00  0.00E+00  0.00E+00  0.00E+00  1.40E-05  4.29E-04  4.36E-03  0.00781
    556.  17.986  1.38E-05  4.28E-04  0.00E+00  0.00E+00  0.00E+00  0.00E+00  1.38E-05  4.28E-04  4.38E-03  0.01477
    558.  17.921  1.36E-05  4.25E-04  0.00E+00  0.00E+00  0.00E+00  0.00E+00  1.36E-05  4.25E-04  4.41E-03  0.02536
    560.  17.857  1.33E-05  4.18E-04  0.00E+00  0.00E+00  0.00E+00  0.00E+00  1.33E-05  4.18E-04  4.44E-03  0.04307
    562.  17.794  1.35E-05  4.28E-04  0.00E+00  0.00E+00  0.00E+00  0.00E+00  1.35E-05  4.28E-04  4.46E-03  0.03216
    564.  17.730  1.40E-05  4.44E-04  0.00E+00  0.00E+00  0.00E+00  0.00E+00  1.40E-05  4.44E-04  4.49E-03  0.00794
    566.  17.668  1.40E-05  4.47E-04  0.00E+00  0.00E+00  0.00E+00  0.00E+00  1.40E-05  4.47E-04  4.52E-03  0.00834
    568.  17.606  1.42E-05  4.59E-04  0.00E+00  0.00E+00  0.00E+00  0.00E+00  1.42E-05  4.59E-04  4.55E-03  0.00004
    570.  17.544  1.42E-05  4.62E-04  0.00E+00  0.00E+00  0.00E+00  0.00E+00  1.42E-05  4.62E-04  4.58E-03  0.00028
    572.  17.483  1.39E-05  4.55E-04  0.00E+00  0.00E+00  0.00E+00  0.00E+00  1.39E-05  4.55E-04  4.60E-03  0.01028
    574.  17.422  1.37E-05  4.51E-04  0.00E+00  0.00E+00  0.00E+00  0.00E+00  1.37E-05  4.51E-04  4.63E-03  0.02233
    576.  17.361  1.42E-05  4.71E-04  0.00E+00  0.00E+00  0.00E+00  0.00E+00  1.42E-05  4.71E-04  4.66E-03  0.00052
    578.  17.301  1.39E-05  4.65E-04  0.00E+00  0.00E+00  0.00E+00  0.00E+00  1.39E-05  4.65E-04  4.69E-03  0.00927
    580.  17.241  1.41E-05  4.74E-04  0.00E+00  0.00E+00  0.00E+00  0.00E+00  1.41E-05  4.74E-04  4.72E-03  0.00379
    582.  17.182  1.41E-05  4.77E-04  0.00E+00  0.00E+00  0.00E+00  0.00E+00  1.41E-05  4.77E-04  4.74E-03  0.00381
    584.  17.123  1.40E-05  4.78E-04  0.00E+00  0.00E+00  0.00E+00  0.00E+00  1.40E-05  4.78E-04  4.77E-03  0.00491
    586.  17.065  1.38E-05  4.74E-04  0.00E+00  0.00E+00  0.00E+00  0.00E+00  1.38E-05  4.74E-04  4.80E-03  0.01308
    588.  17.007  1.35E-05  4.67E-04  0.00E+00  0.00E+00  0.00E+00  0.00E+00  1.35E-05  4.67E-04  4.83E-03  0.02860
    590.  16.949  1.40E-05  4.89E-04  0.00E+00  0.00E+00  0.00E+00  0.00E+00  1.40E-05  4.89E-04  4.86E-03  0.00180
    592.  16.892  1.42E-05  4.99E-04  0.00E+00  0.00E+00  0.00E+00  0.00E+00  1.42E-05  4.99E-04  4.88E-03  0.00000
    594.  16.835  1.42E-05  4.99E-04  0.00E+00  0.00E+00  0.00E+00  0.00E+00  1.42E-05  4.99E-04  4.91E-03  0.00014
    596.  16.779  1.40E-05  4.97E-04  0.00E+00  0.00E+00  0.00E+00  0.00E+00  1.40E-05  4.97E-04  4.94E-03  0.00343
    598.  16.722  1.39E-05  4.96E-04  0.00E+00  0.00E+00  0.00E+00  0.00E+00  1.39E-05  4.96E-04  4.97E-03  0.00834
1                                             RADIANCE(WATTS/CM2-STER-XXX)
0  FREQ   WAVLEN    PATH THERMAL      SURFACE EMISSION    SURFACE REFLECTED     TOTAL RADIANCE   INTEGRAL    TOTAL
  (CM-1) (MICRN)    (CM-1)   (MICRN)    (CM-1)   (MICRN)    (CM-1)   (MICRN)    (CM-1)   (MICRN)    (CM-1)   TRANS

    600.  16.667  1.40E-05  5.04E-04  0.00E+00  0.00E+00  0.00E+00  0.00E+00  1.40E-05  5.04E-04  5.00E-03  0.00501
    602.  16.611  1.38E-05  5.01E-04  0.00E+00  0.00E+00  0.00E+00  0.00E+00  1.38E-05  5.01E-04  5.02E-03  0.00915
    604.  16.556  1.39E-05  5.07E-04  0.00E+00  0.00E+00  0.00E+00  0.00E+00  1.39E-05  5.07E-04  5.05E-03  0.00589
    606.  16.502  1.37E-05  5.04E-04  0.00E+00  0.00E+00  0.00E+00  0.00E+00  1.37E-05  5.04E-04  5.08E-03  0.01108
    608.  16.447  1.37E-05  5.06E-04  0.00E+00  0.00E+00  0.00E+00  0.00E+00  1.37E-05  5.06E-04  5.11E-03  0.01247
    610.  16.393  1.36E-05  5.06E-04  0.00E+00  0.00E+00  0.00E+00  0.00E+00  1.36E-05  5.06E-04  5.13E-03  0.01475
    612.  16.340  1.37E-05  5.13E-04  0.00E+00  0.00E+00  0.00E+00  0.00E+00  1.37E-05  5.13E-04  5.16E-03  0.01214
    614.  16.287  1.39E-05  5.24E-04  0.00E+00  0.00E+00  0.00E+00  0.00E+00  1.39E-05  5.24E-04  5.19E-03  0.00355
    616.  16.234  1.41E-05  5.35E-04  0.00E+00  0.00E+00  0.00E+00  0.00E+00  1.41E-05  5.35E-04  5.22E-03  0.00024
    618.  16.181  1.41E-05  5.39E-04  0.00E+00  0.00E+00  0.00E+00  0.00E+00  1.41E-05  5.39E-04  5.24E-03  0.00013
    620.  16.129  1.39E-05  5.35E-04  0.00E+00  0.00E+00  0.00E+00  0.00E+00  1.39E-05  5.35E-04  5.27E-03  0.00200
    622.  16.077  1.38E-05  5.34E-04  0.00E+00  0.00E+00  0.00E+00  0.00E+00  1.38E-05  5.34E-04  5.30E-03  0.00475
    624.  16.026  1.39E-05  5.42E-04  0.00E+00  0.00E+00  0.00E+00  0.00E+00  1.39E-05  5.42E-04  5.33E-03  0.00215
    626.  15.974  1.40E-05  5.51E-04  0.00E+00  0.00E+00  0.00E+00  0.00E+00  1.40E-05  5.51E-04  5.36E-03  0.00004
    628.  15.924  1.39E-05  5.50E-04  0.00E+00  0.00E+00  0.00E+00  0.00E+00  1.39E-05  5.50E-04  5.38E-03  0.00040
    630.  15.873  1.39E-05  5.54E-04  0.00E+00  0.00E+00  0.00E+00  0.00E+00  1.39E-05  5.54E-04  5.41E-03  0.00026
    632.  15.823  1.40E-05  5.59E-04  0.00E+00  0.00E+00  0.00E+00  0.00E+00  1.40E-05  5.59E-04  5.44E-03  0.00006
    634.  15.773  1.40E-05  5.64E-04  0.00E+00  0.00E+00  0.00E+00  0.00E+00  1.40E-05  5.64E-04  5.47E-03  0.00000
    636.  15.723  1.40E-05  5.67E-04  0.00E+00  0.00E+00  0.00E+00  0.00E+00  1.40E-05  5.67E-04  5.50E-03  0.00000
    638.  15.674  1.40E-05  5.71E-04  0.00E+00  0.00E+00  0.00E+00  0.00E+00  1.40E-05  5.71E-04  5.52E-03  0.00000
    640.  15.625  1.40E-05  5.74E-04  0.00E+00  0.00E+00  0.00E+00  0.00E+00  1.40E-05  5.74E-04  5.55E-03  0.00000
    642.  15.576  1.40E-05  5.77E-04  0.00E+00  0.00E+00  0.00E+00  0.00E+00  1.40E-05  5.77E-04  5.58E-03  0.00000
    644.  15.528  1.40E-05  5.81E-04  0.00E+00  0.00E+00  0.00E+00  0.00E+00  1.40E-05  5.81E-04  5.61E-03  0.00000
    646.  15.480  1.40E-05  5.85E-04  0.00E+00  0.00E+00  0.00E+00  0.00E+00  1.40E-05  5.85E-04  5.64E-03  0.00000
    648.  15.432  1.40E-05  5.89E-04  0.00E+00  0.00E+00  0.00E+00  0.00E+00  1.40E-05  5.89E-04  5.66E-03  0.00000
    650.  15.385  1.40E-05  5.92E-04  0.00E+00  0.00E+00  0.00E+00  0.00E+00  1.40E-05  5.92E-04  5.69E-03  0.00000
    652.  15.337  1.40E-05  5.95E-04  0.00E+00  0.00E+00  0.00E+00  0.00E+00  1.40E-05  5.95E-04  5.72E-03  0.00000
    654.  15.291  1.40E-05  5.98E-04  0.00E+00  0.00E+00  0.00E+00  0.00E+00  1.40E-05  5.98E-04  5.75E-03  0.00000
    656.  15.244  1.40E-05  6.00E-04  0.00E+00  0.00E+00  0.00E+00  0.00E+00  1.40E-05  6.00E-04  5.78E-03  0.00000
    658.  15.198  1.39E-05  6.04E-04  0.00E+00  0.00E+00  0.00E+00  0.00E+00  1.39E-05  6.04E-04  5.80E-03  0.00000
    660.  15.152  1.39E-05  6.07E-04  0.00E+00  0.00E+00  0.00E+00  0.00E+00  1.39E-05  6.07E-04  5.83E-03  0.00000
    662.  15.106  1.39E-05  6.10E-04  0.00E+00  0.00E+00  0.00E+00  0.00E+00  1.39E-05  6.10E-04  5.86E-03  0.00000
    664.  15.060  1.39E-05  6.13E-04  0.00E+00  0.00E+00  0.00E+00  0.00E+00  1.39E-05  6.13E-04  5.89E-03  0.00000
    666.  15.015  1.39E-05  6.18E-04  0.00E+00  0.00E+00  0.00E+00  0.00E+00  1.39E-05  6.18E-04  5.92E-03  0.00000
    668.  14.970  1.39E-05  6.22E-04  0.00E+00  0.00E+00  0.00E+00  0.00E+00  1.39E-05  6.22E-04  5.94E-03  0.00000
    670.  14.925  1.39E-05  6.25E-04  0.00E+00  0.00E+00  0.00E+00  0.00E+00  1.39E-05  6.25E-04  5.97E-03  0.00000
    672.  14.881  1.39E-05  6.26E-04  0.00E+00  0.00E+00  0.00E+00  0.00E+00  1.39E-05  6.26E-04  6.00E-03  0.00000
    674.  14.837  1.38E-05  6.27E-04  0.00E+00  0.00E+00  0.00E+00  0.00E+00  1.38E-05  6.27E-04  6.03E-03  0.00000
    676.  14.793  1.38E-05  6.31E-04  0.00E+00  0.00E+00  0.00E+00  0.00E+00  1.38E-05  6.31E-04  6.05E-03  0.00000
    678.  14.749  1.38E-05  6.34E-04  0.00E+00  0.00E+00  0.00E+00  0.00E+00  1.38E-05  6.34E-04  6.08E-03  0.00000
    680.  14.706  1.38E-05  6.37E-04  0.00E+00  0.00E+00  0.00E+00  0.00E+00  1.38E-05  6.37E-04  6.11E-03  0.00000
    682.  14.663  1.37E-05  6.39E-04  0.00E+00  0.00E+00  0.00E+00  0.00E+00  1.37E-05  6.39E-04  6.14E-03  0.00000
    684.  14.620  1.37E-05  6.42E-04  0.00E+00  0.00E+00  0.00E+00  0.00E+00  1.37E-05  6.42E-04  6.16E-03  0.00000
    686.  14.577  1.37E-05  6.44E-04  0.00E+00  0.00E+00  0.00E+00  0.00E+00  1.37E-05  6.44E-04  6.19E-03  0.00000
    688.  14.535  1.37E-05  6.48E-04  0.00E+00  0.00E+00  0.00E+00  0.00E+00  1.37E-05  6.48E-04  6.22E-03  0.00000
    690.  14.493  1.37E-05  6.50E-04  0.00E+00  0.00E+00  0.00E+00  0.00E+00  1.37E-05  6.50E-04  6.25E-03  0.00000
    692.  14.451  1.36E-05  6.51E-04  0.00E+00  0.00E+00  0.00E+00  0.00E+00  1.36E-05  6.51E-04  6.27E-03  0.00000
    694.  14.409  1.36E-05  6.53E-04  0.00E+00  0.00E+00  0.00E+00  0.00E+00  1.36E-05  6.53E-04  6.30E-03  0.00000
    696.  14.368  1.36E-05  6.56E-04  0.00E+00  0.00E+00  0.00E+00  0.00E+00  1.36E-05  6.56E-04  6.33E-03  0.00000
    698.  14.327  1.35E-05  6.58E-04  0.00E+00  0.00E+00  0.00E+00  0.00E+00  1.35E-05  6.58E-04  6.35E-03  0.00000
1                                             RADIANCE(WATTS/CM2-STER-XXX)
0  FREQ   WAVLEN    PATH THERMAL      SURFACE EMISSION    SURFACE REFLECTED     TOTAL RADIANCE   INTEGRAL    TOTAL
  (CM-1) (MICRN)    (CM-1)   (MICRN)    (CM-1)   (MICRN)    (CM-1)   (MICRN)    (CM-1)   (MICRN)    (CM-1)   TRANS

    700.  14.286  1.34E-05  6.58E-04  0.00E+00  0.00E+00  0.00E+00  0.00E+00  1.34E-05  6.58E-04  6.38E-03  0.00001
    702.  14.245  1.34E-05  6.61E-04  0.00E+00  0.00E+00  0.00E+00  0.00E+00  1.34E-05  6.61E-04  6.41E-03  0.00001
    704.  14.205  1.34E-05  6.64E-04  0.00E+00  0.00E+00  0.00E+00  0.00E+00  1.34E-05  6.64E-04  6.43E-03  0.00001
    706.  14.164  1.33E-05  6.65E-04  0.00E+00  0.00E+00  0.00E+00  0.00E+00  1.33E-05  6.65E-04  6.46E-03  0.00009
    708.  14.124  1.33E-05  6.64E-04  0.00E+00  0.00E+00  0.00E+00  0.00E+00  1.33E-05  6.64E-04  6.49E-03  0.00066
    710.  14.085  1.31E-05  6.61E-04  0.00E+00  0.00E+00  0.00E+00  0.00E+00  1.31E-05  6.61E-04  6.51E-03  0.00285
    712.  14.045  1.30E-05  6.59E-04  0.00E+00  0.00E+00  0.00E+00  0.00E+00  1.30E-05  6.59E-04  6.54E-03  0.00611
    714.  14.006  1.31E-05  6.65E-04  0.00E+00  0.00E+00  0.00E+00  0.00E+00  1.31E-05  6.65E-04  6.57E-03  0.00437
    716.  13.966  1.26E-05  6.47E-04  0.00E+00  0.00E+00  0.00E+00  0.00E+00  1.26E-05  6.47E-04  6.59E-03  0.01683
    718.  13.928  1.30E-05  6.68E-04  0.00E+00  0.00E+00  0.00E+00  0.00E+00  1.30E-05  6.68E-04  6.62E-03  0.00457
    720.  13.889  1.33E-05  6.88E-04  0.00E+00  0.00E+00  0.00E+00  0.00E+00  1.33E-05  6.88E-04  6.64E-03  0.00000
    722.  13.850  1.24E-05  6.45E-04  0.00E+00  0.00E+00  0.00E+00  0.00E+00  1.24E-05  6.45E-04  6.67E-03  0.02663
    724.  13.812  1.17E-05  6.14E-04  0.00E+00  0.00E+00  0.00E+00  0.00E+00  1.17E-05  6.14E-04  6.69E-03  0.05701
    726.  13.774  1.09E-05  5.76E-04  0.00E+00  0.00E+00  0.00E+00  0.00E+00  1.09E-05  5.76E-04  6.71E-03  0.11399
    728.  13.736  1.16E-05  6.13E-04  0.00E+00  0.00E+00  0.00E+00  0.00E+00  1.16E-05  6.13E-04  6.74E-03  0.07016
    730.  13.699  1.25E-05  6.65E-04  0.00E+00  0.00E+00  0.00E+00  0.00E+00  1.25E-05  6.65E-04  6.76E-03  0.02137
    732.  13.661  1.22E-05  6.53E-04  0.00E+00  0.00E+00  0.00E+00  0.00E+00  1.22E-05  6.53E-04  6.79E-03  0.03509
    734.  13.624  1.14E-05  6.16E-04  0.00E+00  0.00E+00  0.00E+00  0.00E+00  1.14E-05  6.16E-04  6.81E-03  0.07120
    736.  13.587  1.16E-05  6.30E-04  0.00E+00  0.00E+00  0.00E+00  0.00E+00  1.16E-05  6.30E-04  6.83E-03  0.06111
    738.  13.550  1.18E-05  6.42E-04  0.00E+00  0.00E+00  0.00E+00  0.00E+00  1.18E-05  6.42E-04  6.86E-03  0.05067
    740.  13.514  1.21E-05  6.62E-04  0.00E+00  0.00E+00  0.00E+00  0.00E+00  1.21E-05  6.62E-04  6.88E-03  0.03360
    742.  13.477  1.21E-05  6.69E-04  0.00E+00  0.00E+00  0.00E+00  0.00E+00  1.21E-05  6.69E-04  6.90E-03  0.03934
    744.  13.441  1.14E-05  6.34E-04  0.00E+00  0.00E+00  0.00E+00  0.00E+00  1.14E-05  6.34E-04  6.93E-03  0.07673
    746.  13.405  1.01E-05  5.61E-04  0.00E+00  0.00E+00  0.00E+00  0.00E+00  1.01E-05  5.61E-04  6.95E-03  0.16851
    748.  13.369  1.07E-05  6.00E-04  0.00E+00  0.00E+00  0.00E+00  0.00E+00  1.07E-05  6.00E-04  6.97E-03  0.12631
    750.  13.333  9.85E-06  5.54E-04  0.00E+00  0.00E+00  0.00E+00  0.00E+00  9.85E-06  5.54E-04  6.99E-03  0.17830
    752.  13.298  9.67E-06  5.47E-04  0.00E+00  0.00E+00  0.00E+00  0.00E+00  9.67E-06  5.47E-04  7.01E-03  0.19764
    754.  13.263  1.08E-05  6.11E-04  0.00E+00  0.00E+00  0.00E+00  0.00E+00  1.08E-05  6.11E-04  7.03E-03  0.11848
    756.  13.228  1.00E-05  5.73E-04  0.00E+00  0.00E+00  0.00E+00  0.00E+00  1.00E-05  5.73E-04  7.05E-03  0.16396
    758.  13.193  7.62E-06  4.38E-04  0.00E+00  0.00E+00  0.00E+00  0.00E+00  7.62E-06  4.38E-04  7.07E-03  0.34717
    760.  13.158  7.64E-06  4.41E-04  0.00E+00  0.00E+00  0.00E+00  0.00E+00  7.64E-06  4.41E-04  7.08E-03  0.35085
    762.  13.123  7.00E-06  4.07E-04  0.00E+00  0.00E+00  0.00E+00  0.00E+00  7.00E-06  4.07E-04  7.09E-03  0.40044
    764.  13.089  6.18E-06  3.61E-04  0.00E+00  0.00E+00  0.00E+00  0.00E+00  6.18E-06  3.61E-04  7.11E-03  0.47216
    766.  13.055  6.43E-06  3.78E-04  0.00E+00  0.00E+00  0.00E+00  0.00E+00  6.43E-06  3.78E-04  7.12E-03  0.44996
    768.  13.021  6.90E-06  4.07E-04  0.00E+00  0.00E+00  0.00E+00  0.00E+00  6.90E-06  4.07E-04  7.13E-03  0.41500
    770.  12.987  7.58E-06  4.49E-04  0.00E+00  0.00E+00  0.00E+00  0.00E+00  7.58E-06  4.49E-04  7.15E-03  0.36262
    772.  12.953  5.64E-06  3.36E-04  0.00E+00  0.00E+00  0.00E+00  0.00E+00  5.64E-06  3.36E-04  7.16E-03  0.51799
    774.  12.920  5.77E-06  3.46E-04  0.00E+00  0.00E+00  0.00E+00  0.00E+00  5.77E-06  3.46E-04  7.17E-03  0.50676
    776.  12.887  8.68E-06  5.23E-04  0.00E+00  0.00E+00  0.00E+00  0.00E+00  8.68E-06  5.23E-04  7.19E-03  0.27458
    778.  12.853  7.17E-06  4.34E-04  0.00E+00  0.00E+00  0.00E+00  0.00E+00  7.17E-06  4.34E-04  7.20E-03  0.39570
    780.  12.821  6.05E-06  3.68E-04  0.00E+00  0.00E+00  0.00E+00  0.00E+00  6.05E-06  3.68E-04  7.22E-03  0.48439
    782.  12.788  5.33E-06  3.26E-04  0.00E+00  0.00E+00  0.00E+00  0.00E+00  5.33E-06  3.26E-04  7.23E-03  0.54172
    784.  12.755  8.41E-06  5.17E-04  0.00E+00  0.00E+00  0.00E+00  0.00E+00  8.41E-06  5.17E-04  7.24E-03  0.29131
    786.  12.723  5.64E-06  3.48E-04  0.00E+00  0.00E+00  0.00E+00  0.00E+00  5.64E-06  3.48E-04  7.25E-03  0.51532
    788.  12.690  4.88E-06  3.03E-04  0.00E+00  0.00E+00  0.00E+00  0.00E+00  4.88E-06  3.03E-04  7.26E-03  0.57863
    790.  12.658  4.94E-06  3.08E-04  0.00E+00  0.00E+00  0.00E+00  0.00E+00  4.94E-06  3.08E-04  7.27E-03  0.56918
    792.  12.626  7.11E-06  4.46E-04  0.00E+00  0.00E+00  0.00E+00  0.00E+00  7.11E-06  4.46E-04  7.29E-03  0.36304
    794.  12.594  7.68E-06  4.84E-04  0.00E+00  0.00E+00  0.00E+00  0.00E+00  7.68E-06  4.84E-04  7.30E-03  0.33866
    796.  12.563  8.28E-06  5.25E-04  0.00E+00  0.00E+00  0.00E+00  0.00E+00  8.28E-06  5.25E-04  7.32E-03  0.29072
    798.  12.531  8.65E-06  5.51E-04  0.00E+00  0.00E+00  0.00E+00  0.00E+00  8.65E-06  5.51E-04  7.34E-03  0.25766
1                                             RADIANCE(WATTS/CM2-STER-XXX)
0  FREQ   WAVLEN    PATH THERMAL      SURFACE EMISSION    SURFACE REFLECTED     TOTAL RADIANCE   INTEGRAL    TOTAL
  (CM-1) (MICRN)    (CM-1)   (MICRN)    (CM-1)   (MICRN)    (CM-1)   (MICRN)    (CM-1)   (MICRN)    (CM-1)   TRANS

    800.  12.500  6.69E-06  4.28E-04  0.00E+00  0.00E+00  0.00E+00  0.00E+00  6.69E-06  4.28E-04  7.35E-03  0.42249
    802.  12.469  5.63E-06  3.62E-04  0.00E+00  0.00E+00  0.00E+00  0.00E+00  5.63E-06  3.62E-04  7.36E-03  0.50646
    804.  12.438  7.14E-06  4.61E-04  0.00E+00  0.00E+00  0.00E+00  0.00E+00  7.14E-06  4.61E-04  7.38E-03  0.38033
    806.  12.407  5.08E-06  3.30E-04  0.00E+00  0.00E+00  0.00E+00  0.00E+00  5.08E-06  3.30E-04  7.39E-03  0.55068
    808.  12.376  6.71E-06  4.38E-04  0.00E+00  0.00E+00  0.00E+00  0.00E+00  6.71E-06  4.38E-04  7.40E-03  0.41206
    810.  12.346  4.43E-06  2.91E-04  0.00E+00  0.00E+00  0.00E+00  0.00E+00  4.43E-06  2.91E-04  7.41E-03  0.60578
    812.  12.315  4.33E-06  2.85E-04  0.00E+00  0.00E+00  0.00E+00  0.00E+00  4.33E-06  2.85E-04  7.42E-03  0.61379
    814.  12.285  6.57E-06  4.35E-04  0.00E+00  0.00E+00  0.00E+00  0.00E+00  6.57E-06  4.35E-04  7.43E-03  0.42056
    816.  12.255  5.03E-06  3.35E-04  0.00E+00  0.00E+00  0.00E+00  0.00E+00  5.03E-06  3.35E-04  7.44E-03  0.55198
    818.  12.225  4.00E-06  2.68E-04  0.00E+00  0.00E+00  0.00E+00  0.00E+00  4.00E-06  2.68E-04  7.45E-03  0.64179
    820.  12.195  3.94E-06  2.65E-04  0.00E+00  0.00E+00  0.00E+00  0.00E+00  3.94E-06  2.65E-04  7.46E-03  0.64597
    822.  12.165  3.91E-06  2.64E-04  0.00E+00  0.00E+00  0.00E+00  0.00E+00  3.91E-06  2.64E-04  7.46E-03  0.64772
    824.  12.136  4.29E-06  2.91E-04  0.00E+00  0.00E+00  0.00E+00  0.00E+00  4.29E-06  2.91E-04  7.47E-03  0.61352
    826.  12.107  4.65E-06  3.17E-04  0.00E+00  0.00E+00  0.00E+00  0.00E+00  4.65E-06  3.17E-04  7.48E-03  0.57999
    828.  12.077  5.91E-06  4.05E-04  0.00E+00  0.00E+00  0.00E+00  0.00E+00  5.91E-06  4.05E-04  7.49E-03  0.46731
    830.  12.048  3.74E-06  2.58E-04  0.00E+00  0.00E+00  0.00E+00  0.00E+00  3.74E-06  2.58E-04  7.50E-03  0.65985
    832.  12.019  3.65E-06  2.53E-04  0.00E+00  0.00E+00  0.00E+00  0.00E+00  3.65E-06  2.53E-04  7.51E-03  0.66708
    834.  11.990  3.63E-06  2.52E-04  0.00E+00  0.00E+00  0.00E+00  0.00E+00  3.63E-06  2.52E-04  7.52E-03  0.66852
    836.  11.962  4.06E-06  2.84E-04  0.00E+00  0.00E+00  0.00E+00  0.00E+00  4.06E-06  2.84E-04  7.52E-03  0.62809
    838.  11.933  3.69E-06  2.59E-04  0.00E+00  0.00E+00  0.00E+00  0.00E+00  3.69E-06  2.59E-04  7.53E-03  0.66016
    840.  11.905  5.59E-06  3.94E-04  0.00E+00  0.00E+00  0.00E+00  0.00E+00  5.59E-06  3.94E-04  7.54E-03  0.48846
    842.  11.876  4.10E-06  2.91E-04  0.00E+00  0.00E+00  0.00E+00  0.00E+00  4.10E-06  2.91E-04  7.55E-03  0.61825
    844.  11.848  3.47E-06  2.47E-04  0.00E+00  0.00E+00  0.00E+00  0.00E+00  3.47E-06  2.47E-04  7.56E-03  0.67580
    846.  11.820  3.50E-06  2.51E-04  0.00E+00  0.00E+00  0.00E+00  0.00E+00  3.50E-06  2.51E-04  7.56E-03  0.67115
    848.  11.792  3.54E-06  2.55E-04  0.00E+00  0.00E+00  0.00E+00  0.00E+00  3.54E-06  2.55E-04  7.57E-03  0.66613
    850.  11.765  5.11E-06  3.69E-04  0.00E+00  0.00E+00  0.00E+00  0.00E+00  5.11E-06  3.69E-04  7.58E-03  0.52272
    852.  11.737  6.79E-06  4.93E-04  0.00E+00  0.00E+00  0.00E+00  0.00E+00  6.79E-06  4.93E-04  7.60E-03  0.37053
    854.  11.710  5.39E-06  3.93E-04  0.00E+00  0.00E+00  0.00E+00  0.00E+00  5.39E-06  3.93E-04  7.61E-03  0.49465
    856.  11.682  4.15E-06  3.04E-04  0.00E+00  0.00E+00  0.00E+00  0.00E+00  4.15E-06  3.04E-04  7.61E-03  0.60870
    858.  11.655  3.34E-06  2.46E-04  0.00E+00  0.00E+00  0.00E+00  0.00E+00  3.34E-06  2.46E-04  7.62E-03  0.68249
    860.  11.628  3.46E-06  2.56E-04  0.00E+00  0.00E+00  0.00E+00  0.00E+00  3.46E-06  2.56E-04  7.63E-03  0.67052
    862.  11.601  3.12E-06  2.32E-04  0.00E+00  0.00E+00  0.00E+00  0.00E+00  3.12E-06  2.32E-04  7.63E-03  0.70055
    864.  11.574  3.81E-06  2.84E-04  0.00E+00  0.00E+00  0.00E+00  0.00E+00  3.81E-06  2.84E-04  7.64E-03  0.63482
    866.  11.547  3.86E-06  2.90E-04  0.00E+00  0.00E+00  0.00E+00  0.00E+00  3.86E-06  2.90E-04  7.65E-03  0.62843
    868.  11.521  3.04E-06  2.29E-04  0.00E+00  0.00E+00  0.00E+00  0.00E+00  3.04E-06  2.29E-04  7.66E-03  0.70439
    870.  11.494  3.62E-06  2.74E-04  0.00E+00  0.00E+00  0.00E+00  0.00E+00  3.62E-06  2.74E-04  7.66E-03  0.64901
    872.  11.468  3.71E-06  2.82E-04  0.00E+00  0.00E+00  0.00E+00  0.00E+00  3.71E-06  2.82E-04  7.67E-03  0.63858
    874.  11.442  2.96E-06  2.26E-04  0.00E+00  0.00E+00  0.00E+00  0.00E+00  2.96E-06  2.26E-04  7.68E-03  0.70932
    876.  11.416  2.99E-06  2.29E-04  0.00E+00  0.00E+00  0.00E+00  0.00E+00  2.99E-06  2.29E-04  7.68E-03  0.70576
    878.  11.390  3.51E-06  2.71E-04  0.00E+00  0.00E+00  0.00E+00  0.00E+00  3.51E-06  2.71E-04  7.69E-03  0.65222
    880.  11.364  3.60E-06  2.79E-04  0.00E+00  0.00E+00  0.00E+00  0.00E+00  3.60E-06  2.79E-04  7.70E-03  0.64245
    882.  11.338  3.28E-06  2.55E-04  0.00E+00  0.00E+00  0.00E+00  0.00E+00  3.28E-06  2.55E-04  7.70E-03  0.67316
    884.  11.312  3.98E-06  3.11E-04  0.00E+00  0.00E+00  0.00E+00  0.00E+00  3.98E-06  3.11E-04  7.71E-03  0.60390
    886.  11.287  3.52E-06  2.76E-04  0.00E+00  0.00E+00  0.00E+00  0.00E+00  3.52E-06  2.76E-04  7.72E-03  0.64708
    888.  11.261  3.95E-06  3.12E-04  0.00E+00  0.00E+00  0.00E+00  0.00E+00  3.95E-06  3.12E-04  7.73E-03  0.60309
    890.  11.236  3.60E-06  2.85E-04  0.00E+00  0.00E+00  0.00E+00  0.00E+00  3.60E-06  2.85E-04  7.73E-03  0.63659
    892.  11.211  2.91E-06  2.32E-04  0.00E+00  0.00E+00  0.00E+00  0.00E+00  2.91E-06  2.32E-04  7.74E-03  0.70339
    894.  11.186  2.68E-06  2.14E-04  0.00E+00  0.00E+00  0.00E+00  0.00E+00  2.68E-06  2.14E-04  7.74E-03  0.72618
    896.  11.161  2.74E-06  2.20E-04  0.00E+00  0.00E+00  0.00E+00  0.00E+00  2.74E-06  2.20E-04  7.75E-03  0.71667
    898.  11.136  2.90E-06  2.34E-04  0.00E+00  0.00E+00  0.00E+00  0.00E+00  2.90E-06  2.34E-04  7.76E-03  0.70331
1                                             RADIANCE(WATTS/CM2-STER-XXX)
0  FREQ   WAVLEN    PATH THERMAL      SURFACE EMISSION    SURFACE REFLECTED     TOTAL RADIANCE   INTEGRAL    TOTAL
  (CM-1) (MICRN)    (CM-1)   (MICRN)    (CM-1)   (MICRN)    (CM-1)   (MICRN)    (CM-1)   (MICRN)    (CM-1)   TRANS

    900.  11.111  2.60E-06  2.10E-04  0.00E+00  0.00E+00  0.00E+00  0.00E+00  2.60E-06  2.10E-04  7.76E-03  0.73308
    902.  11.086  2.60E-06  2.12E-04  0.00E+00  0.00E+00  0.00E+00  0.00E+00  2.60E-06  2.12E-04  7.77E-03  0.73176
    904.  11.062  2.62E-06  2.14E-04  0.00E+00  0.00E+00  0.00E+00  0.00E+00  2.62E-06  2.14E-04  7.77E-03  0.72882
    906.  11.038  3.12E-06  2.56E-04  0.00E+00  0.00E+00  0.00E+00  0.00E+00  3.12E-06  2.56E-04  7.78E-03  0.67720
    908.  11.013  3.56E-06  2.94E-04  0.00E+00  0.00E+00  0.00E+00  0.00E+00  3.56E-06  2.94E-04  7.78E-03  0.63136
    910.  10.989  3.49E-06  2.89E-04  0.00E+00  0.00E+00  0.00E+00  0.00E+00  3.49E-06  2.89E-04  7.79E-03  0.63686
    912.  10.965  2.58E-06  2.14E-04  0.00E+00  0.00E+00  0.00E+00  0.00E+00  2.58E-06  2.14E-04  7.80E-03  0.72887
    914.  10.941  2.84E-06  2.37E-04  0.00E+00  0.00E+00  0.00E+00  0.00E+00  2.84E-06  2.37E-04  7.80E-03  0.70096
    916.  10.917  2.48E-06  2.08E-04  0.00E+00  0.00E+00  0.00E+00  0.00E+00  2.48E-06  2.08E-04  7.81E-03  0.73772
    918.  10.893  2.86E-06  2.41E-04  0.00E+00  0.00E+00  0.00E+00  0.00E+00  2.86E-06  2.41E-04  7.81E-03  0.69737
    920.  10.870  2.60E-06  2.20E-04  0.00E+00  0.00E+00  0.00E+00  0.00E+00  2.60E-06  2.20E-04  7.82E-03  0.72327
    922.  10.846  3.73E-06  3.17E-04  0.00E+00  0.00E+00  0.00E+00  0.00E+00  3.73E-06  3.17E-04  7.83E-03  0.60442
    924.  10.823  3.08E-06  2.63E-04  0.00E+00  0.00E+00  0.00E+00  0.00E+00  3.08E-06  2.63E-04  7.83E-03  0.67134
    926.  10.799  2.93E-06  2.51E-04  0.00E+00  0.00E+00  0.00E+00  0.00E+00  2.93E-06  2.51E-04  7.84E-03  0.68651
    928.  10.776  2.51E-06  2.16E-04  0.00E+00  0.00E+00  0.00E+00  0.00E+00  2.51E-06  2.16E-04  7.84E-03  0.72831
    930.  10.753  2.50E-06  2.16E-04  0.00E+00  0.00E+00  0.00E+00  0.00E+00  2.50E-06  2.16E-04  7.85E-03  0.72825
    932.  10.730  2.40E-06  2.08E-04  0.00E+00  0.00E+00  0.00E+00  0.00E+00  2.40E-06  2.08E-04  7.85E-03  0.73849
    934.  10.707  2.33E-06  2.04E-04  0.00E+00  0.00E+00  0.00E+00  0.00E+00  2.33E-06  2.04E-04  7.86E-03  0.74522
    936.  10.684  2.35E-06  2.06E-04  0.00E+00  0.00E+00  0.00E+00  0.00E+00  2.35E-06  2.06E-04  7.86E-03  0.74312
    938.  10.661  2.34E-06  2.05E-04  0.00E+00  0.00E+00  0.00E+00  0.00E+00  2.34E-06  2.05E-04  7.87E-03  0.74328
    940.  10.638  2.43E-06  2.15E-04  0.00E+00  0.00E+00  0.00E+00  0.00E+00  2.43E-06  2.15E-04  7.87E-03  0.73136
    942.  10.616  2.49E-06  2.21E-04  0.00E+00  0.00E+00  0.00E+00  0.00E+00  2.49E-06  2.21E-04  7.88E-03  0.72209
    944.  10.593  2.48E-06  2.21E-04  0.00E+00  0.00E+00  0.00E+00  0.00E+00  2.48E-06  2.21E-04  7.88E-03  0.72331
    946.  10.571  2.48E-06  2.22E-04  0.00E+00  0.00E+00  0.00E+00  0.00E+00  2.48E-06  2.22E-04  7.89E-03  0.72142
    948.  10.549  3.48E-06  3.12E-04  0.00E+00  0.00E+00  0.00E+00  0.00E+00  3.48E-06  3.12E-04  7.89E-03  0.61150
    950.  10.526  2.27E-06  2.05E-04  0.00E+00  0.00E+00  0.00E+00  0.00E+00  2.27E-06  2.05E-04  7.90E-03  0.74330
    952.  10.504  2.43E-06  2.20E-04  0.00E+00  0.00E+00  0.00E+00  0.00E+00  2.43E-06  2.20E-04  7.90E-03  0.72481
    954.  10.482  2.73E-06  2.48E-04  0.00E+00  0.00E+00  0.00E+00  0.00E+00  2.73E-06  2.48E-04  7.91E-03  0.69120
    956.  10.460  2.64E-06  2.42E-04  0.00E+00  0.00E+00  0.00E+00  0.00E+00  2.64E-06  2.42E-04  7.91E-03  0.69807
    958.  10.438  2.14E-06  1.96E-04  0.00E+00  0.00E+00  0.00E+00  0.00E+00  2.14E-06  1.96E-04  7.92E-03  0.75572
    960.  10.417  2.31E-06  2.13E-04  0.00E+00  0.00E+00  0.00E+00  0.00E+00  2.31E-06  2.13E-04  7.92E-03  0.73695
    962.  10.395  2.02E-06  1.87E-04  0.00E+00  0.00E+00  0.00E+00  0.00E+00  2.02E-06  1.87E-04  7.93E-03  0.76829
    964.  10.373  1.96E-06  1.82E-04  0.00E+00  0.00E+00  0.00E+00  0.00E+00  1.96E-06  1.82E-04  7.93E-03  0.77397
    966.  10.352  2.37E-06  2.21E-04  0.00E+00  0.00E+00  0.00E+00  0.00E+00  2.37E-06  2.21E-04  7.94E-03  0.72249
    968.  10.331  2.23E-06  2.09E-04  0.00E+00  0.00E+00  0.00E+00  0.00E+00  2.23E-06  2.09E-04  7.94E-03  0.73716
    970.  10.309  2.30E-06  2.16E-04  0.00E+00  0.00E+00  0.00E+00  0.00E+00  2.30E-06  2.16E-04  7.94E-03  0.72862
    972.  10.288  2.89E-06  2.73E-04  0.00E+00  0.00E+00  0.00E+00  0.00E+00  2.89E-06  2.73E-04  7.95E-03  0.65530
    974.  10.267  2.60E-06  2.47E-04  0.00E+00  0.00E+00  0.00E+00  0.00E+00  2.60E-06  2.47E-04  7.96E-03  0.69072
    976.  10.246  2.89E-06  2.75E-04  0.00E+00  0.00E+00  0.00E+00  0.00E+00  2.89E-06  2.75E-04  7.96E-03  0.65247
    978.  10.225  2.19E-06  2.10E-04  0.00E+00  0.00E+00  0.00E+00  0.00E+00  2.19E-06  2.10E-04  7.97E-03  0.73345
    980.  10.204  1.95E-06  1.88E-04  0.00E+00  0.00E+00  0.00E+00  0.00E+00  1.95E-06  1.88E-04  7.97E-03  0.76032
    982.  10.183  1.97E-06  1.90E-04  0.00E+00  0.00E+00  0.00E+00  0.00E+00  1.97E-06  1.90E-04  7.97E-03  0.75508
    984.  10.163  2.03E-06  1.96E-04  0.00E+00  0.00E+00  0.00E+00  0.00E+00  2.03E-06  1.96E-04  7.98E-03  0.74690
    986.  10.142  1.76E-06  1.71E-04  0.00E+00  0.00E+00  0.00E+00  0.00E+00  1.76E-06  1.71E-04  7.98E-03  0.77571
    988.  10.121  1.77E-06  1.72E-04  0.00E+00  0.00E+00  0.00E+00  0.00E+00  1.77E-06  1.72E-04  7.98E-03  0.76965
    990.  10.101  1.81E-06  1.78E-04  0.00E+00  0.00E+00  0.00E+00  0.00E+00  1.81E-06  1.78E-04  7.99E-03  0.75841
    992.  10.081  1.76E-06  1.73E-04  0.00E+00  0.00E+00  0.00E+00  0.00E+00  1.76E-06  1.73E-04  7.99E-03  0.75510
    994.  10.060  1.79E-06  1.77E-04  0.00E+00  0.00E+00  0.00E+00  0.00E+00  1.79E-06  1.77E-04  8.00E-03  0.74378
    996.  10.040  1.79E-06  1.77E-04  0.00E+00  0.00E+00  0.00E+00  0.00E+00  1.79E-06  1.77E-04  8.00E-03  0.73270
    998.  10.020  2.02E-06  2.02E-04  0.00E+00  0.00E+00  0.00E+00  0.00E+00  2.02E-06  2.02E-04  8.00E-03  0.68890
1                                             RADIANCE(WATTS/CM2-STER-XXX)
0  FREQ   WAVLEN    PATH THERMAL      SURFACE EMISSION    SURFACE REFLECTED     TOTAL RADIANCE   INTEGRAL    TOTAL
  (CM-1) (MICRN)    (CM-1)   (MICRN)    (CM-1)   (MICRN)    (CM-1)   (MICRN)    (CM-1)   (MICRN)    (CM-1)   TRANS

   1000.  10.000  2.41E-06  2.41E-04  0.00E+00  0.00E+00  0.00E+00  0.00E+00  2.41E-06  2.41E-04  8.01E-03  0.63636
   1002.   9.980  1.93E-06  1.94E-04  0.00E+00  0.00E+00  0.00E+00  0.00E+00  1.93E-06  1.94E-04  8.01E-03  0.66593
   1004.   9.960  2.30E-06  2.32E-04  0.00E+00  0.00E+00  0.00E+00  0.00E+00  2.30E-06  2.32E-04  8.02E-03  0.61375
   1006.   9.940  2.01E-06  2.04E-04  0.00E+00  0.00E+00  0.00E+00  0.00E+00  2.01E-06  2.04E-04  8.02E-03  0.61959
   1008.   9.921  2.03E-06  2.06E-04  0.00E+00  0.00E+00  0.00E+00  0.00E+00  2.03E-06  2.06E-04  8.02E-03  0.60858
   1010.   9.901  2.88E-06  2.94E-04  0.00E+00  0.00E+00  0.00E+00  0.00E+00  2.88E-06  2.94E-04  8.03E-03  0.50593
   1012.   9.881  2.42E-06  2.48E-04  0.00E+00  0.00E+00  0.00E+00  0.00E+00  2.42E-06  2.48E-04  8.03E-03  0.52725
   1014.   9.862  3.14E-06  3.23E-04  0.00E+00  0.00E+00  0.00E+00  0.00E+00  3.14E-06  3.23E-04  8.04E-03  0.44404
   1016.   9.843  2.36E-06  2.43E-04  0.00E+00  0.00E+00  0.00E+00  0.00E+00  2.36E-06  2.43E-04  8.05E-03  0.50565
   1018.   9.823  3.04E-06  3.15E-04  0.00E+00  0.00E+00  0.00E+00  0.00E+00  3.04E-06  3.15E-04  8.05E-03  0.41243
   1020.   9.804  2.35E-06  2.44E-04  0.00E+00  0.00E+00  0.00E+00  0.00E+00  2.35E-06  2.44E-04  8.06E-03  0.45850
   1022.   9.785  2.40E-06  2.51E-04  0.00E+00  0.00E+00  0.00E+00  0.00E+00  2.40E-06  2.51E-04  8.06E-03  0.43540
   1024.   9.766  2.32E-06  2.44E-04  0.00E+00  0.00E+00  0.00E+00  0.00E+00  2.32E-06  2.44E-04  8.07E-03  0.43181
   1026.   9.747  2.30E-06  2.42E-04  0.00E+00  0.00E+00  0.00E+00  0.00E+00  2.30E-06  2.42E-04  8.07E-03  0.44270
   1028.   9.728  3.28E-06  3.47E-04  0.00E+00  0.00E+00  0.00E+00  0.00E+00  3.28E-06  3.47E-04  8.08E-03  0.35523
   1030.   9.709  3.14E-06  3.33E-04  0.00E+00  0.00E+00  0.00E+00  0.00E+00  3.14E-06  3.33E-04  8.08E-03  0.35152
   1032.   9.690  2.56E-06  2.73E-04  0.00E+00  0.00E+00  0.00E+00  0.00E+00  2.56E-06  2.73E-04  8.09E-03  0.40828
   1034.   9.671  2.32E-06  2.48E-04  0.00E+00  0.00E+00  0.00E+00  0.00E+00  2.32E-06  2.48E-04  8.09E-03  0.41812
   1036.   9.653  2.34E-06  2.51E-04  0.00E+00  0.00E+00  0.00E+00  0.00E+00  2.34E-06  2.51E-04  8.10E-03  0.39056
   1038.   9.634  2.67E-06  2.87E-04  0.00E+00  0.00E+00  0.00E+00  0.00E+00  2.67E-06  2.87E-04  8.10E-03  0.35013
   1040.   9.615  2.80E-06  3.02E-04  0.00E+00  0.00E+00  0.00E+00  0.00E+00  2.80E-06  3.02E-04  8.11E-03  0.31417
   1042.   9.597  2.15E-06  2.34E-04  0.00E+00  0.00E+00  0.00E+00  0.00E+00  2.15E-06  2.34E-04  8.11E-03  0.49989
   1044.   9.579  1.84E-06  2.00E-04  0.00E+00  0.00E+00  0.00E+00  0.00E+00  1.84E-06  2.00E-04  8.12E-03  0.64513
   1046.   9.560  2.07E-06  2.26E-04  0.00E+00  0.00E+00  0.00E+00  0.00E+00  2.07E-06  2.26E-04  8.12E-03  0.49033
   1048.   9.542  2.57E-06  2.83E-04  0.00E+00  0.00E+00  0.00E+00  0.00E+00  2.57E-06  2.83E-04  8.13E-03  0.36191
   1050.   9.524  3.08E-06  3.39E-04  0.00E+00  0.00E+00  0.00E+00  0.00E+00  3.08E-06  3.39E-04  8.13E-03  0.31310
   1052.   9.506  2.89E-06  3.20E-04  0.00E+00  0.00E+00  0.00E+00  0.00E+00  2.89E-06  3.20E-04  8.14E-03  0.29772
   1054.   9.488  2.67E-06  2.97E-04  0.00E+00  0.00E+00  0.00E+00  0.00E+00  2.67E-06  2.97E-04  8.14E-03  0.30944
   1056.   9.470  3.03E-06  3.38E-04  0.00E+00  0.00E+00  0.00E+00  0.00E+00  3.03E-06  3.38E-04  8.15E-03  0.28184
   1058.   9.452  2.56E-06  2.86E-04  0.00E+00  0.00E+00  0.00E+00  0.00E+00  2.56E-06  2.86E-04  8.15E-03  0.34908
   1060.   9.434  2.83E-06  3.18E-04  0.00E+00  0.00E+00  0.00E+00  0.00E+00  2.83E-06  3.18E-04  8.16E-03  0.36576
   1062.   9.416  2.39E-06  2.70E-04  0.00E+00  0.00E+00  0.00E+00  0.00E+00  2.39E-06  2.70E-04  8.16E-03  0.42995
   1064.   9.398  2.08E-06  2.36E-04  0.00E+00  0.00E+00  0.00E+00  0.00E+00  2.08E-06  2.36E-04  8.17E-03  0.53293
   1066.   9.381  3.46E-06  3.93E-04  0.00E+00  0.00E+00  0.00E+00  0.00E+00  3.46E-06  3.93E-04  8.18E-03  0.43599
   1068.   9.363  1.82E-06  2.07E-04  0.00E+00  0.00E+00  0.00E+00  0.00E+00  1.82E-06  2.07E-04  8.18E-03  0.66581
   1070.   9.346  1.53E-06  1.75E-04  0.00E+00  0.00E+00  0.00E+00  0.00E+00  1.53E-06  1.75E-04  8.18E-03  0.73877
   1072.   9.328  1.73E-06  1.99E-04  0.00E+00  0.00E+00  0.00E+00  0.00E+00  1.73E-06  1.99E-04  8.19E-03  0.72690
   1074.   9.311  2.88E-06  3.32E-04  0.00E+00  0.00E+00  0.00E+00  0.00E+00  2.88E-06  3.32E-04  8.19E-03  0.56896
   1076.   9.294  1.92E-06  2.22E-04  0.00E+00  0.00E+00  0.00E+00  0.00E+00  1.92E-06  2.22E-04  8.20E-03  0.69325
   1078.   9.276  1.40E-06  1.63E-04  0.00E+00  0.00E+00  0.00E+00  0.00E+00  1.40E-06  1.63E-04  8.20E-03  0.77697
   1080.   9.259  1.59E-06  1.86E-04  0.00E+00  0.00E+00  0.00E+00  0.00E+00  1.59E-06  1.86E-04  8.20E-03  0.73733
   1082.   9.242  1.54E-06  1.80E-04  0.00E+00  0.00E+00  0.00E+00  0.00E+00  1.54E-06  1.80E-04  8.20E-03  0.74638
   1084.   9.225  1.47E-06  1.72E-04  0.00E+00  0.00E+00  0.00E+00  0.00E+00  1.47E-06  1.72E-04  8.21E-03  0.76572
   1086.   9.208  1.54E-06  1.82E-04  0.00E+00  0.00E+00  0.00E+00  0.00E+00  1.54E-06  1.82E-04  8.21E-03  0.74812
   1088.   9.191  1.40E-06  1.66E-04  0.00E+00  0.00E+00  0.00E+00  0.00E+00  1.40E-06  1.66E-04  8.21E-03  0.76854
   1090.   9.174  1.90E-06  2.25E-04  0.00E+00  0.00E+00  0.00E+00  0.00E+00  1.90E-06  2.25E-04  8.22E-03  0.70179
   1092.   9.158  2.04E-06  2.43E-04  0.00E+00  0.00E+00  0.00E+00  0.00E+00  2.04E-06  2.43E-04  8.22E-03  0.68336
   1094.   9.141  1.16E-06  1.39E-04  0.00E+00  0.00E+00  0.00E+00  0.00E+00  1.16E-06  1.39E-04  8.22E-03  0.80511
   1096.   9.124  1.11E-06  1.34E-04  0.00E+00  0.00E+00  0.00E+00  0.00E+00  1.11E-06  1.34E-04  8.23E-03  0.81633
   1098.   9.107  1.24E-06  1.49E-04  0.00E+00  0.00E+00  0.00E+00  0.00E+00  1.24E-06  1.49E-04  8.23E-03  0.79597
1                                             RADIANCE(WATTS/CM2-STER-XXX)
0  FREQ   WAVLEN    PATH THERMAL      SURFACE EMISSION    SURFACE REFLECTED     TOTAL RADIANCE   INTEGRAL    TOTAL
  (CM-1) (MICRN)    (CM-1)   (MICRN)    (CM-1)   (MICRN)    (CM-1)   (MICRN)    (CM-1)   (MICRN)    (CM-1)   TRANS

   1100.   9.091  2.97E-06  3.60E-04  0.00E+00  0.00E+00  0.00E+00  0.00E+00  2.97E-06  3.60E-04  8.23E-03  0.54006
   1102.   9.074  2.01E-06  2.44E-04  0.00E+00  0.00E+00  0.00E+00  0.00E+00  2.01E-06  2.44E-04  8.24E-03  0.67815
   1104.   9.058  1.18E-06  1.43E-04  0.00E+00  0.00E+00  0.00E+00  0.00E+00  1.18E-06  1.43E-04  8.24E-03  0.80473
   1106.   9.042  2.38E-06  2.91E-04  0.00E+00  0.00E+00  0.00E+00  0.00E+00  2.38E-06  2.91E-04  8.25E-03  0.62510
   1108.   9.025  2.06E-06  2.53E-04  0.00E+00  0.00E+00  0.00E+00  0.00E+00  2.06E-06  2.53E-04  8.25E-03  0.67252
   1110.   9.009  1.39E-06  1.71E-04  0.00E+00  0.00E+00  0.00E+00  0.00E+00  1.39E-06  1.71E-04  8.25E-03  0.76991
   1112.   8.993  2.81E-06  3.47E-04  0.00E+00  0.00E+00  0.00E+00  0.00E+00  2.81E-06  3.47E-04  8.26E-03  0.55368
   1114.   8.977  1.14E-06  1.41E-04  0.00E+00  0.00E+00  0.00E+00  0.00E+00  1.14E-06  1.41E-04  8.26E-03  0.80365
   1116.   8.961  1.10E-06  1.37E-04  0.00E+00  0.00E+00  0.00E+00  0.00E+00  1.10E-06  1.37E-04  8.26E-03  0.80921
   1118.   8.945  1.48E-06  1.85E-04  0.00E+00  0.00E+00  0.00E+00  0.00E+00  1.48E-06  1.85E-04  8.27E-03  0.74253
   1120.   8.929  2.29E-06  2.88E-04  0.00E+00  0.00E+00  0.00E+00  0.00E+00  2.29E-06  2.88E-04  8.27E-03  0.62519
   1122.   8.913  2.48E-06  3.12E-04  0.00E+00  0.00E+00  0.00E+00  0.00E+00  2.48E-06  3.12E-04  8.28E-03  0.59181
   1124.   8.897  1.15E-06  1.45E-04  0.00E+00  0.00E+00  0.00E+00  0.00E+00  1.15E-06  1.45E-04  8.28E-03  0.79008
   1126.   8.881  1.05E-06  1.33E-04  0.00E+00  0.00E+00  0.00E+00  0.00E+00  1.05E-06  1.33E-04  8.28E-03  0.80713
   1128.   8.865  1.01E-06  1.28E-04  0.00E+00  0.00E+00  0.00E+00  0.00E+00  1.01E-06  1.28E-04  8.28E-03  0.81556
   1130.   8.850  1.10E-06  1.41E-04  0.00E+00  0.00E+00  0.00E+00  0.00E+00  1.10E-06  1.41E-04  8.28E-03  0.79853
   1132.   8.834  1.15E-06  1.47E-04  0.00E+00  0.00E+00  0.00E+00  0.00E+00  1.15E-06  1.47E-04  8.29E-03  0.79362
   1134.   8.818  2.15E-06  2.76E-04  0.00E+00  0.00E+00  0.00E+00  0.00E+00  2.15E-06  2.76E-04  8.29E-03  0.62907
   1136.   8.803  4.92E-06  6.35E-04  0.00E+00  0.00E+00  0.00E+00  0.00E+00  4.92E-06  6.35E-04  8.30E-03  0.20481
   1138.   8.787  2.60E-06  3.36E-04  0.00E+00  0.00E+00  0.00E+00  0.00E+00  2.60E-06  3.36E-04  8.31E-03  0.55956
   1140.   8.772  1.15E-06  1.50E-04  0.00E+00  0.00E+00  0.00E+00  0.00E+00  1.15E-06  1.50E-04  8.31E-03  0.79221
   1142.   8.757  1.31E-06  1.70E-04  0.00E+00  0.00E+00  0.00E+00  0.00E+00  1.31E-06  1.70E-04  8.31E-03  0.76463
   1144.   8.741  1.05E-06  1.38E-04  0.00E+00  0.00E+00  0.00E+00  0.00E+00  1.05E-06  1.38E-04  8.31E-03  0.80399
   1146.   8.726  1.07E-06  1.41E-04  0.00E+00  0.00E+00  0.00E+00  0.00E+00  1.07E-06  1.41E-04  8.31E-03  0.79868
   1148.   8.711  1.98E-06  2.60E-04  0.00E+00  0.00E+00  0.00E+00  0.00E+00  1.98E-06  2.60E-04  8.32E-03  0.64956
   1150.   8.696  2.45E-06  3.24E-04  0.00E+00  0.00E+00  0.00E+00  0.00E+00  2.45E-06  3.24E-04  8.32E-03  0.56806
   1152.   8.681  3.24E-06  4.30E-04  0.00E+00  0.00E+00  0.00E+00  0.00E+00  3.24E-06  4.30E-04  8.33E-03  0.43905
   1154.   8.666  1.41E-06  1.88E-04  0.00E+00  0.00E+00  0.00E+00  0.00E+00  1.41E-06  1.88E-04  8.33E-03  0.73325
   1156.   8.651  1.09E-06  1.46E-04  0.00E+00  0.00E+00  0.00E+00  0.00E+00  1.09E-06  1.46E-04  8.33E-03  0.78495
   1158.   8.636  1.04E-06  1.39E-04  0.00E+00  0.00E+00  0.00E+00  0.00E+00  1.04E-06  1.39E-04  8.34E-03  0.79431
   1160.   8.621  1.05E-06  1.41E-04  0.00E+00  0.00E+00  0.00E+00  0.00E+00  1.05E-06  1.41E-04  8.34E-03  0.79136
   1162.   8.606  1.09E-06  1.47E-04  0.00E+00  0.00E+00  0.00E+00  0.00E+00  1.09E-06  1.47E-04  8.34E-03  0.78606
   1164.   8.591  2.25E-06  3.04E-04  0.00E+00  0.00E+00  0.00E+00  0.00E+00  2.25E-06  3.04E-04  8.35E-03  0.59333
   1166.   8.576  3.22E-06  4.38E-04  0.00E+00  0.00E+00  0.00E+00  0.00E+00  3.22E-06  4.38E-04  8.35E-03  0.42687
   1168.   8.562  1.11E-06  1.51E-04  0.00E+00  0.00E+00  0.00E+00  0.00E+00  1.11E-06  1.51E-04  8.35E-03  0.79163
   1170.   8.547  1.27E-06  1.73E-04  0.00E+00  0.00E+00  0.00E+00  0.00E+00  1.27E-06  1.73E-04  8.36E-03  0.75962
   1172.   8.532  1.67E-06  2.29E-04  0.00E+00  0.00E+00  0.00E+00  0.00E+00  1.67E-06  2.29E-04  8.36E-03  0.68009
   1174.   8.518  4.69E-06  6.46E-04  0.00E+00  0.00E+00  0.00E+00  0.00E+00  4.69E-06  6.46E-04  8.37E-03  0.17774
   1176.   8.503  3.10E-06  4.29E-04  0.00E+00  0.00E+00  0.00E+00  0.00E+00  3.10E-06  4.29E-04  8.38E-03  0.43183
   1178.   8.489  1.46E-06  2.03E-04  0.00E+00  0.00E+00  0.00E+00  0.00E+00  1.46E-06  2.03E-04  8.38E-03  0.70941
   1180.   8.475  1.47E-06  2.05E-04  0.00E+00  0.00E+00  0.00E+00  0.00E+00  1.47E-06  2.05E-04  8.38E-03  0.70904
   1182.   8.460  1.27E-06  1.77E-04  0.00E+00  0.00E+00  0.00E+00  0.00E+00  1.27E-06  1.77E-04  8.38E-03  0.74608
   1184.   8.446  1.53E-06  2.15E-04  0.00E+00  0.00E+00  0.00E+00  0.00E+00  1.53E-06  2.15E-04  8.39E-03  0.69468
   1186.   8.432  2.97E-06  4.18E-04  0.00E+00  0.00E+00  0.00E+00  0.00E+00  2.97E-06  4.18E-04  8.39E-03  0.44674
   1188.   8.418  4.00E-06  5.64E-04  0.00E+00  0.00E+00  0.00E+00  0.00E+00  4.00E-06  5.64E-04  8.40E-03  0.26570
   1190.   8.403  1.65E-06  2.33E-04  0.00E+00  0.00E+00  0.00E+00  0.00E+00  1.65E-06  2.33E-04  8.40E-03  0.67157
   1192.   8.389  1.36E-06  1.93E-04  0.00E+00  0.00E+00  0.00E+00  0.00E+00  1.36E-06  1.93E-04  8.41E-03  0.72574
   1194.   8.375  1.38E-06  1.96E-04  0.00E+00  0.00E+00  0.00E+00  0.00E+00  1.38E-06  1.96E-04  8.41E-03  0.72738
   1196.   8.361  1.47E-06  2.10E-04  0.00E+00  0.00E+00  0.00E+00  0.00E+00  1.47E-06  2.10E-04  8.41E-03  0.70771
   1198.   8.347  3.73E-06  5.36E-04  0.00E+00  0.00E+00  0.00E+00  0.00E+00  3.73E-06  5.36E-04  8.42E-03  0.29786
1                                             RADIANCE(WATTS/CM2-STER-XXX)
0  FREQ   WAVLEN    PATH THERMAL      SURFACE EMISSION    SURFACE REFLECTED     TOTAL RADIANCE   INTEGRAL    TOTAL
  (CM-1) (MICRN)    (CM-1)   (MICRN)    (CM-1)   (MICRN)    (CM-1)   (MICRN)    (CM-1)   (MICRN)    (CM-1)   TRANS

   1200.   8.333  1.89E-06  2.72E-04  0.00E+00  0.00E+00  0.00E+00  0.00E+00  1.89E-06  2.72E-04  8.42E-03  0.62878
   1202.   8.319  1.05E-06  1.52E-04  0.00E+00  0.00E+00  0.00E+00  0.00E+00  1.05E-06  1.52E-04  8.43E-03  0.78419
   1204.   8.306  9.33E-07  1.35E-04  0.00E+00  0.00E+00  0.00E+00  0.00E+00  9.33E-07  1.35E-04  8.43E-03  0.80939
   1206.   8.292  1.72E-06  2.50E-04  0.00E+00  0.00E+00  0.00E+00  0.00E+00  1.72E-06  2.50E-04  8.43E-03  0.65517
   1208.   8.278  1.34E-06  1.95E-04  0.00E+00  0.00E+00  0.00E+00  0.00E+00  1.34E-06  1.95E-04  8.43E-03  0.72832
   1210.   8.264  2.57E-06  3.77E-04  0.00E+00  0.00E+00  0.00E+00  0.00E+00  2.57E-06  3.77E-04  8.44E-03  0.48761
   1212.   8.251  4.93E-06  7.24E-04  0.00E+00  0.00E+00  0.00E+00  0.00E+00  4.93E-06  7.24E-04  8.45E-03  0.06285
   1214.   8.237  2.83E-06  4.17E-04  0.00E+00  0.00E+00  0.00E+00  0.00E+00  2.83E-06  4.17E-04  8.45E-03  0.43843
   1216.   8.224  1.80E-06  2.66E-04  0.00E+00  0.00E+00  0.00E+00  0.00E+00  1.80E-06  2.66E-04  8.46E-03  0.62214
   1218.   8.210  3.07E-06  4.55E-04  0.00E+00  0.00E+00  0.00E+00  0.00E+00  3.07E-06  4.55E-04  8.46E-03  0.38207
   1220.   8.197  3.20E-06  4.76E-04  0.00E+00  0.00E+00  0.00E+00  0.00E+00  3.20E-06  4.76E-04  8.47E-03  0.34744
   1222.   8.183  2.35E-06  3.51E-04  0.00E+00  0.00E+00  0.00E+00  0.00E+00  2.35E-06  3.51E-04  8.48E-03  0.49696
   1224.   8.170  3.43E-06  5.14E-04  0.00E+00  0.00E+00  0.00E+00  0.00E+00  3.43E-06  5.14E-04  8.48E-03  0.30116
   1226.   8.157  4.33E-06  6.52E-04  0.00E+00  0.00E+00  0.00E+00  0.00E+00  4.33E-06  6.52E-04  8.49E-03  0.14580
   1228.   8.143  1.83E-06  2.76E-04  0.00E+00  0.00E+00  0.00E+00  0.00E+00  1.83E-06  2.76E-04  8.49E-03  0.60337
   1230.   8.130  1.65E-06  2.49E-04  0.00E+00  0.00E+00  0.00E+00  0.00E+00  1.65E-06  2.49E-04  8.50E-03  0.61606
   1232.   8.117  1.06E-06  1.61E-04  0.00E+00  0.00E+00  0.00E+00  0.00E+00  1.06E-06  1.61E-04  8.50E-03  0.76425
   1234.   8.104  1.10E-06  1.67E-04  0.00E+00  0.00E+00  0.00E+00  0.00E+00  1.10E-06  1.67E-04  8.50E-03  0.75589
   1236.   8.091  2.21E-06  3.37E-04  0.00E+00  0.00E+00  0.00E+00  0.00E+00  2.21E-06  3.37E-04  8.51E-03  0.49078
   1238.   8.078  2.52E-06  3.87E-04  0.00E+00  0.00E+00  0.00E+00  0.00E+00  2.52E-06  3.87E-04  8.51E-03  0.43741
   1240.   8.065  2.84E-06  4.37E-04  0.00E+00  0.00E+00  0.00E+00  0.00E+00  2.84E-06  4.37E-04  8.52E-03  0.37653
   1242.   8.052  2.86E-06  4.41E-04  0.00E+00  0.00E+00  0.00E+00  0.00E+00  2.86E-06  4.41E-04  8.52E-03  0.35620
   1244.   8.039  4.65E-06  7.19E-04  0.00E+00  0.00E+00  0.00E+00  0.00E+00  4.65E-06  7.19E-04  8.53E-03  0.04325
   1246.   8.026  3.00E-06  4.66E-04  0.00E+00  0.00E+00  0.00E+00  0.00E+00  3.00E-06  4.66E-04  8.54E-03  0.31811
   1248.   8.013  2.87E-06  4.48E-04  0.00E+00  0.00E+00  0.00E+00  0.00E+00  2.87E-06  4.48E-04  8.54E-03  0.34141
   1250.   8.000  2.35E-06  3.68E-04  0.00E+00  0.00E+00  0.00E+00  0.00E+00  2.35E-06  3.68E-04  8.55E-03  0.43142
   1252.   7.987  3.06E-06  4.79E-04  0.00E+00  0.00E+00  0.00E+00  0.00E+00  3.06E-06  4.79E-04  8.56E-03  0.29951
   1254.   7.974  3.28E-06  5.16E-04  0.00E+00  0.00E+00  0.00E+00  0.00E+00  3.28E-06  5.16E-04  8.56E-03  0.21606
   1256.   7.962  2.88E-06  4.54E-04  0.00E+00  0.00E+00  0.00E+00  0.00E+00  2.88E-06  4.54E-04  8.57E-03  0.31228
   1258.   7.949  3.84E-06  6.08E-04  0.00E+00  0.00E+00  0.00E+00  0.00E+00  3.84E-06  6.08E-04  8.58E-03  0.14062
   1260.   7.937  4.78E-06  7.59E-04  0.00E+00  0.00E+00  0.00E+00  0.00E+00  4.78E-06  7.59E-04  8.58E-03  0.00337
   1262.   7.924  4.09E-06  6.52E-04  0.00E+00  0.00E+00  0.00E+00  0.00E+00  4.09E-06  6.52E-04  8.59E-03  0.07703
   1264.   7.911  4.08E-06  6.52E-04  0.00E+00  0.00E+00  0.00E+00  0.00E+00  4.08E-06  6.52E-04  8.60E-03  0.08179
   1266.   7.899  4.58E-06  7.35E-04  0.00E+00  0.00E+00  0.00E+00  0.00E+00  4.58E-06  7.35E-04  8.61E-03  0.01238
   1268.   7.886  4.71E-06  7.57E-04  0.00E+00  0.00E+00  0.00E+00  0.00E+00  4.71E-06  7.57E-04  8.62E-03  0.00091
   1270.   7.874  4.69E-06  7.57E-04  0.00E+00  0.00E+00  0.00E+00  0.00E+00  4.69E-06  7.57E-04  8.63E-03  0.00050
   1272.   7.862  4.64E-06  7.51E-04  0.00E+00  0.00E+00  0.00E+00  0.00E+00  4.64E-06  7.51E-04  8.64E-03  0.00284
   1274.   7.849  3.93E-06  6.38E-04  0.00E+00  0.00E+00  0.00E+00  0.00E+00  3.93E-06  6.38E-04  8.65E-03  0.07425
   1276.   7.837  3.23E-06  5.25E-04  0.00E+00  0.00E+00  0.00E+00  0.00E+00  3.23E-06  5.25E-04  8.65E-03  0.17333
   1278.   7.825  2.91E-06  4.75E-04  0.00E+00  0.00E+00  0.00E+00  0.00E+00  2.91E-06  4.75E-04  8.66E-03  0.24340
   1280.   7.813  4.01E-06  6.57E-04  0.00E+00  0.00E+00  0.00E+00  0.00E+00  4.01E-06  6.57E-04  8.67E-03  0.07407
   1282.   7.800  3.77E-06  6.19E-04  0.00E+00  0.00E+00  0.00E+00  0.00E+00  3.77E-06  6.19E-04  8.67E-03  0.08056
   1284.   7.788  3.91E-06  6.45E-04  0.00E+00  0.00E+00  0.00E+00  0.00E+00  3.91E-06  6.45E-04  8.68E-03  0.07701
   1286.   7.776  4.05E-06  6.71E-04  0.00E+00  0.00E+00  0.00E+00  0.00E+00  4.05E-06  6.71E-04  8.69E-03  0.06356
   1288.   7.764  4.49E-06  7.45E-04  0.00E+00  0.00E+00  0.00E+00  0.00E+00  4.49E-06  7.45E-04  8.70E-03  0.00046
   1290.   7.752  4.23E-06  7.05E-04  0.00E+00  0.00E+00  0.00E+00  0.00E+00  4.23E-06  7.05E-04  8.71E-03  0.01980
   1292.   7.740  3.86E-06  6.44E-04  0.00E+00  0.00E+00  0.00E+00  0.00E+00  3.86E-06  6.44E-04  8.72E-03  0.07074
   1294.   7.728  3.66E-06  6.12E-04  0.00E+00  0.00E+00  0.00E+00  0.00E+00  3.66E-06  6.12E-04  8.72E-03  0.06881
   1296.   7.716  4.20E-06  7.05E-04  0.00E+00  0.00E+00  0.00E+00  0.00E+00  4.20E-06  7.05E-04  8.73E-03  0.01323
   1298.   7.704  3.76E-06  6.33E-04  0.00E+00  0.00E+00  0.00E+00  0.00E+00  3.76E-06  6.33E-04  8.74E-03  0.05763
1                                             RADIANCE(WATTS/CM2-STER-XXX)
0  FREQ   WAVLEN    PATH THERMAL      SURFACE EMISSION    SURFACE REFLECTED     TOTAL RADIANCE   INTEGRAL    TOTAL
  (CM-1) (MICRN)    (CM-1)   (MICRN)    (CM-1)   (MICRN)    (CM-1)   (MICRN)    (CM-1)   (MICRN)    (CM-1)   TRANS

   1300.   7.692  3.46E-06  5.84E-04  0.00E+00  0.00E+00  0.00E+00  0.00E+00  3.46E-06  5.84E-04  8.75E-03  0.08418
   1302.   7.680  3.66E-06  6.21E-04  0.00E+00  0.00E+00  0.00E+00  0.00E+00  3.66E-06  6.21E-04  8.75E-03  0.04852
   1304.   7.669  3.96E-06  6.73E-04  0.00E+00  0.00E+00  0.00E+00  0.00E+00  3.96E-06  6.73E-04  8.76E-03  0.01469
   1306.   7.657  4.17E-06  7.11E-04  0.00E+00  0.00E+00  0.00E+00  0.00E+00  4.17E-06  7.11E-04  8.77E-03  0.00401
   1308.   7.645  4.19E-06  7.18E-04  0.00E+00  0.00E+00  0.00E+00  0.00E+00  4.19E-06  7.18E-04  8.78E-03  0.00396
   1310.   7.634  4.05E-06  6.95E-04  0.00E+00  0.00E+00  0.00E+00  0.00E+00  4.05E-06  6.95E-04  8.79E-03  0.01598
   1312.   7.622  4.21E-06  7.26E-04  0.00E+00  0.00E+00  0.00E+00  0.00E+00  4.21E-06  7.26E-04  8.79E-03  0.00169
   1314.   7.610  4.24E-06  7.32E-04  0.00E+00  0.00E+00  0.00E+00  0.00E+00  4.24E-06  7.32E-04  8.80E-03  0.00000
   1316.   7.599  4.22E-06  7.31E-04  0.00E+00  0.00E+00  0.00E+00  0.00E+00  4.22E-06  7.31E-04  8.81E-03  0.00000
   1318.   7.587  4.21E-06  7.32E-04  0.00E+00  0.00E+00  0.00E+00  0.00E+00  4.21E-06  7.32E-04  8.82E-03  0.00000
   1320.   7.576  4.17E-06  7.27E-04  0.00E+00  0.00E+00  0.00E+00  0.00E+00  4.17E-06  7.27E-04  8.83E-03  0.00000
   1322.   7.564  4.05E-06  7.08E-04  0.00E+00  0.00E+00  0.00E+00  0.00E+00  4.05E-06  7.08E-04  8.84E-03  0.00309
   1324.   7.553  3.90E-06  6.83E-04  0.00E+00  0.00E+00  0.00E+00  0.00E+00  3.90E-06  6.83E-04  8.84E-03  0.02247
   1326.   7.541  3.76E-06  6.62E-04  0.00E+00  0.00E+00  0.00E+00  0.00E+00  3.76E-06  6.62E-04  8.85E-03  0.03538
   1328.   7.530  3.90E-06  6.88E-04  0.00E+00  0.00E+00  0.00E+00  0.00E+00  3.90E-06  6.88E-04  8.86E-03  0.00998
   1330.   7.519  3.83E-06  6.78E-04  0.00E+00  0.00E+00  0.00E+00  0.00E+00  3.83E-06  6.78E-04  8.87E-03  0.02451
   1332.   7.508  3.77E-06  6.69E-04  0.00E+00  0.00E+00  0.00E+00  0.00E+00  3.77E-06  6.69E-04  8.87E-03  0.02616
   1334.   7.496  3.90E-06  6.94E-04  0.00E+00  0.00E+00  0.00E+00  0.00E+00  3.90E-06  6.94E-04  8.88E-03  0.00451
   1336.   7.485  3.99E-06  7.13E-04  0.00E+00  0.00E+00  0.00E+00  0.00E+00  3.99E-06  7.13E-04  8.89E-03  0.00030
   1338.   7.474  4.02E-06  7.20E-04  0.00E+00  0.00E+00  0.00E+00  0.00E+00  4.02E-06  7.20E-04  8.90E-03  0.00000
   1340.   7.463  4.01E-06  7.19E-04  0.00E+00  0.00E+00  0.00E+00  0.00E+00  4.01E-06  7.19E-04  8.91E-03  0.00000
   1342.   7.452  3.92E-06  7.06E-04  0.00E+00  0.00E+00  0.00E+00  0.00E+00  3.92E-06  7.06E-04  8.91E-03  0.00012
   1344.   7.440  3.80E-06  6.87E-04  0.00E+00  0.00E+00  0.00E+00  0.00E+00  3.80E-06  6.87E-04  8.92E-03  0.00418
   1346.   7.429  3.75E-06  6.79E-04  0.00E+00  0.00E+00  0.00E+00  0.00E+00  3.75E-06  6.79E-04  8.93E-03  0.00654
   1348.   7.418  3.79E-06  6.89E-04  0.00E+00  0.00E+00  0.00E+00  0.00E+00  3.79E-06  6.89E-04  8.94E-03  0.00105
   1350.   7.407  3.81E-06  6.94E-04  0.00E+00  0.00E+00  0.00E+00  0.00E+00  3.81E-06  6.94E-04  8.94E-03  0.00083
   1352.   7.396  3.72E-06  6.81E-04  0.00E+00  0.00E+00  0.00E+00  0.00E+00  3.72E-06  6.81E-04  8.95E-03  0.00245
   1354.   7.386  3.78E-06  6.94E-04  0.00E+00  0.00E+00  0.00E+00  0.00E+00  3.78E-06  6.94E-04  8.96E-03  0.00051
   1356.   7.375  3.75E-06  6.89E-04  0.00E+00  0.00E+00  0.00E+00  0.00E+00  3.75E-06  6.89E-04  8.97E-03  0.00016
   1358.   7.364  3.73E-06  6.88E-04  0.00E+00  0.00E+00  0.00E+00  0.00E+00  3.73E-06  6.88E-04  8.97E-03  0.00016
   1360.   7.353  3.75E-06  6.93E-04  0.00E+00  0.00E+00  0.00E+00  0.00E+00  3.75E-06  6.93E-04  8.98E-03  0.00000
   1362.   7.342  3.78E-06  7.00E-04  0.00E+00  0.00E+00  0.00E+00  0.00E+00  3.78E-06  7.00E-04  8.99E-03  0.00000
   1364.   7.331  3.75E-06  6.98E-04  0.00E+00  0.00E+00  0.00E+00  0.00E+00  3.75E-06  6.98E-04  9.00E-03  0.00000
   1366.   7.321  3.66E-06  6.84E-04  0.00E+00  0.00E+00  0.00E+00  0.00E+00  3.66E-06  6.84E-04  9.00E-03  0.00001
   1368.   7.310  3.68E-06  6.89E-04  0.00E+00  0.00E+00  0.00E+00  0.00E+00  3.68E-06  6.89E-04  9.01E-03  0.00000
   1370.   7.299  3.65E-06  6.85E-04  0.00E+00  0.00E+00  0.00E+00  0.00E+00  3.65E-06  6.85E-04  9.02E-03  0.00000
   1372.   7.289  3.65E-06  6.88E-04  0.00E+00  0.00E+00  0.00E+00  0.00E+00  3.65E-06  6.88E-04  9.03E-03  0.00000
   1374.   7.278  3.65E-06  6.89E-04  0.00E+00  0.00E+00  0.00E+00  0.00E+00  3.65E-06  6.89E-04  9.03E-03  0.00000
   1376.   7.267  3.63E-06  6.87E-04  0.00E+00  0.00E+00  0.00E+00  0.00E+00  3.63E-06  6.87E-04  9.04E-03  0.00000
   1378.   7.257  3.58E-06  6.79E-04  0.00E+00  0.00E+00  0.00E+00  0.00E+00  3.58E-06  6.79E-04  9.05E-03  0.00000
   1380.   7.246  3.54E-06  6.75E-04  0.00E+00  0.00E+00  0.00E+00  0.00E+00  3.54E-06  6.75E-04  9.05E-03  0.00001
   1382.   7.236  3.51E-06  6.69E-04  0.00E+00  0.00E+00  0.00E+00  0.00E+00  3.51E-06  6.69E-04  9.06E-03  0.00001
   1384.   7.225  3.50E-06  6.70E-04  0.00E+00  0.00E+00  0.00E+00  0.00E+00  3.50E-06  6.70E-04  9.07E-03  0.00000
   1386.   7.215  3.52E-06  6.77E-04  0.00E+00  0.00E+00  0.00E+00  0.00E+00  3.52E-06  6.77E-04  9.08E-03  0.00000
   1388.   7.205  3.51E-06  6.77E-04  0.00E+00  0.00E+00  0.00E+00  0.00E+00  3.51E-06  6.77E-04  9.08E-03  0.00000
   1390.   7.194  3.48E-06  6.72E-04  0.00E+00  0.00E+00  0.00E+00  0.00E+00  3.48E-06  6.72E-04  9.09E-03  0.00000
   1392.   7.184  3.46E-06  6.71E-04  0.00E+00  0.00E+00  0.00E+00  0.00E+00  3.46E-06  6.71E-04  9.10E-03  0.00000
   1394.   7.174  3.46E-06  6.72E-04  0.00E+00  0.00E+00  0.00E+00  0.00E+00  3.46E-06  6.72E-04  9.10E-03  0.00000
   1396.   7.163  3.44E-06  6.71E-04  0.00E+00  0.00E+00  0.00E+00  0.00E+00  3.44E-06  6.71E-04  9.11E-03  0.00000
   1398.   7.153  3.42E-06  6.69E-04  0.00E+00  0.00E+00  0.00E+00  0.00E+00  3.42E-06  6.69E-04  9.12E-03  0.00000
1                                             RADIANCE(WATTS/CM2-STER-XXX)
0  FREQ   WAVLEN    PATH THERMAL      SURFACE EMISSION    SURFACE REFLECTED     TOTAL RADIANCE   INTEGRAL    TOTAL
  (CM-1) (MICRN)    (CM-1)   (MICRN)    (CM-1)   (MICRN)    (CM-1)   (MICRN)    (CM-1)   (MICRN)    (CM-1)   TRANS

   1400.   7.143  3.40E-06  6.66E-04  0.00E+00  0.00E+00  0.00E+00  0.00E+00  3.40E-06  6.66E-04  9.12E-03  0.00000
   1402.   7.133  3.36E-06  6.61E-04  0.00E+00  0.00E+00  0.00E+00  0.00E+00  3.36E-06  6.61E-04  9.13E-03  0.00000
   1404.   7.123  3.36E-06  6.63E-04  0.00E+00  0.00E+00  0.00E+00  0.00E+00  3.36E-06  6.63E-04  9.14E-03  0.00000
   1406.   7.112  3.32E-06  6.57E-04  0.00E+00  0.00E+00  0.00E+00  0.00E+00  3.32E-06  6.57E-04  9.14E-03  0.00000
   1408.   7.102  3.28E-06  6.51E-04  0.00E+00  0.00E+00  0.00E+00  0.00E+00  3.28E-06  6.51E-04  9.15E-03  0.00000
   1410.   7.092  3.28E-06  6.52E-04  0.00E+00  0.00E+00  0.00E+00  0.00E+00  3.28E-06  6.52E-04  9.16E-03  0.00000
   1412.   7.082  3.26E-06  6.51E-04  0.00E+00  0.00E+00  0.00E+00  0.00E+00  3.26E-06  6.51E-04  9.16E-03  0.00000
   1414.   7.072  3.24E-06  6.48E-04  0.00E+00  0.00E+00  0.00E+00  0.00E+00  3.24E-06  6.48E-04  9.17E-03  0.00000
   1416.   7.062  3.25E-06  6.52E-04  0.00E+00  0.00E+00  0.00E+00  0.00E+00  3.25E-06  6.52E-04  9.18E-03  0.00000
   1418.   7.052  3.25E-06  6.53E-04  0.00E+00  0.00E+00  0.00E+00  0.00E+00  3.25E-06  6.53E-04  9.18E-03  0.00000
   1420.   7.042  3.23E-06  6.51E-04  0.00E+00  0.00E+00  0.00E+00  0.00E+00  3.23E-06  6.51E-04  9.19E-03  0.00000
   1422.   7.032  3.21E-06  6.49E-04  0.00E+00  0.00E+00  0.00E+00  0.00E+00  3.21E-06  6.49E-04  9.20E-03  0.00000
   1424.   7.022  3.19E-06  6.46E-04  0.00E+00  0.00E+00  0.00E+00  0.00E+00  3.19E-06  6.46E-04  9.20E-03  0.00000
   1426.   7.013  3.16E-06  6.42E-04  0.00E+00  0.00E+00  0.00E+00  0.00E+00  3.16E-06  6.42E-04  9.21E-03  0.00000
   1428.   7.003  3.14E-06  6.41E-04  0.00E+00  0.00E+00  0.00E+00  0.00E+00  3.14E-06  6.41E-04  9.22E-03  0.00000
   1430.   6.993  3.12E-06  6.39E-04  0.00E+00  0.00E+00  0.00E+00  0.00E+00  3.12E-06  6.39E-04  9.22E-03  0.00000
   1432.   6.983  3.11E-06  6.38E-04  0.00E+00  0.00E+00  0.00E+00  0.00E+00  3.11E-06  6.38E-04  9.23E-03  0.00000
   1434.   6.974  3.10E-06  6.38E-04  0.00E+00  0.00E+00  0.00E+00  0.00E+00  3.10E-06  6.38E-04  9.23E-03  0.00000
   1436.   6.964  3.09E-06  6.37E-04  0.00E+00  0.00E+00  0.00E+00  0.00E+00  3.09E-06  6.37E-04  9.24E-03  0.00000
   1438.   6.954  3.07E-06  6.35E-04  0.00E+00  0.00E+00  0.00E+00  0.00E+00  3.07E-06  6.35E-04  9.25E-03  0.00000
   1440.   6.944  3.03E-06  6.29E-04  0.00E+00  0.00E+00  0.00E+00  0.00E+00  3.03E-06  6.29E-04  9.25E-03  0.00000
   1442.   6.935  3.00E-06  6.24E-04  0.00E+00  0.00E+00  0.00E+00  0.00E+00  3.00E-06  6.24E-04  9.26E-03  0.00000
   1444.   6.925  2.98E-06  6.22E-04  0.00E+00  0.00E+00  0.00E+00  0.00E+00  2.98E-06  6.22E-04  9.26E-03  0.00000
   1446.   6.916  2.99E-06  6.25E-04  0.00E+00  0.00E+00  0.00E+00  0.00E+00  2.99E-06  6.25E-04  9.27E-03  0.00000
   1448.   6.906  2.97E-06  6.23E-04  0.00E+00  0.00E+00  0.00E+00  0.00E+00  2.97E-06  6.23E-04  9.28E-03  0.00000
   1450.   6.897  2.96E-06  6.22E-04  0.00E+00  0.00E+00  0.00E+00  0.00E+00  2.96E-06  6.22E-04  9.28E-03  0.00000
   1452.   6.887  2.94E-06  6.21E-04  0.00E+00  0.00E+00  0.00E+00  0.00E+00  2.94E-06  6.21E-04  9.29E-03  0.00000
   1454.   6.878  2.94E-06  6.21E-04  0.00E+00  0.00E+00  0.00E+00  0.00E+00  2.94E-06  6.21E-04  9.29E-03  0.00000
   1456.   6.868  2.92E-06  6.18E-04  0.00E+00  0.00E+00  0.00E+00  0.00E+00  2.92E-06  6.18E-04  9.30E-03  0.00000
   1458.   6.859  2.90E-06  6.17E-04  0.00E+00  0.00E+00  0.00E+00  0.00E+00  2.90E-06  6.17E-04  9.31E-03  0.00000
   1460.   6.849  2.88E-06  6.14E-04  0.00E+00  0.00E+00  0.00E+00  0.00E+00  2.88E-06  6.14E-04  9.31E-03  0.00000
   1462.   6.840  2.87E-06  6.13E-04  0.00E+00  0.00E+00  0.00E+00  0.00E+00  2.87E-06  6.13E-04  9.32E-03  0.00000
   1464.   6.831  2.85E-06  6.10E-04  0.00E+00  0.00E+00  0.00E+00  0.00E+00  2.85E-06  6.10E-04  9.32E-03  0.00000
   1466.   6.821  2.83E-06  6.08E-04  0.00E+00  0.00E+00  0.00E+00  0.00E+00  2.83E-06  6.08E-04  9.33E-03  0.00000
   1468.   6.812  2.81E-06  6.06E-04  0.00E+00  0.00E+00  0.00E+00  0.00E+00  2.81E-06  6.06E-04  9.33E-03  0.00000
   1470.   6.803  2.80E-06  6.05E-04  0.00E+00  0.00E+00  0.00E+00  0.00E+00  2.80E-06  6.05E-04  9.34E-03  0.00000
   1472.   6.793  2.79E-06  6.04E-04  0.00E+00  0.00E+00  0.00E+00  0.00E+00  2.79E-06  6.04E-04  9.34E-03  0.00000
   1474.   6.784  2.77E-06  6.02E-04  0.00E+00  0.00E+00  0.00E+00  0.00E+00  2.77E-06  6.02E-04  9.35E-03  0.00000
   1476.   6.775  2.75E-06  6.00E-04  0.00E+00  0.00E+00  0.00E+00  0.00E+00  2.75E-06  6.00E-04  9.36E-03  0.00000
   1478.   6.766  2.73E-06  5.97E-04  0.00E+00  0.00E+00  0.00E+00  0.00E+00  2.73E-06  5.97E-04  9.36E-03  0.00000
   1480.   6.757  2.71E-06  5.94E-04  0.00E+00  0.00E+00  0.00E+00  0.00E+00  2.71E-06  5.94E-04  9.37E-03  0.00000
   1482.   6.748  2.70E-06  5.94E-04  0.00E+00  0.00E+00  0.00E+00  0.00E+00  2.70E-06  5.94E-04  9.37E-03  0.00000
   1484.   6.739  2.68E-06  5.91E-04  0.00E+00  0.00E+00  0.00E+00  0.00E+00  2.68E-06  5.91E-04  9.38E-03  0.00000
   1486.   6.729  2.68E-06  5.91E-04  0.00E+00  0.00E+00  0.00E+00  0.00E+00  2.68E-06  5.91E-04  9.38E-03  0.00000
   1488.   6.720  2.66E-06  5.89E-04  0.00E+00  0.00E+00  0.00E+00  0.00E+00  2.66E-06  5.89E-04  9.39E-03  0.00000
   1490.   6.711  2.65E-06  5.87E-04  0.00E+00  0.00E+00  0.00E+00  0.00E+00  2.65E-06  5.87E-04  9.39E-03  0.00000
   1492.   6.702  2.63E-06  5.87E-04  0.00E+00  0.00E+00  0.00E+00  0.00E+00  2.63E-06  5.87E-04  9.40E-03  0.00000
   1494.   6.693  2.62E-06  5.84E-04  0.00E+00  0.00E+00  0.00E+00  0.00E+00  2.62E-06  5.84E-04  9.40E-03  0.00000
   1496.   6.684  2.60E-06  5.81E-04  0.00E+00  0.00E+00  0.00E+00  0.00E+00  2.60E-06  5.81E-04  9.41E-03  0.00000
   1498.   6.676  2.58E-06  5.80E-04  0.00E+00  0.00E+00  0.00E+00  0.00E+00  2.58E-06  5.80E-04  9.41E-03  0.00000
1                                             RADIANCE(WATTS/CM2-STER-XXX)
0  FREQ   WAVLEN    PATH THERMAL      SURFACE EMISSION    SURFACE REFLECTED     TOTAL RADIANCE   INTEGRAL    TOTAL
  (CM-1) (MICRN)    (CM-1)   (MICRN)    (CM-1)   (MICRN)    (CM-1)   (MICRN)    (CM-1)   (MICRN)    (CM-1)   TRANS

   1500.   6.667  2.57E-06  5.79E-04  0.00E+00  0.00E+00  0.00E+00  0.00E+00  2.57E-06  5.79E-04  9.42E-03  0.00000
0INTEGRATED ABSORPTION FROM  100 TO 1500 CM-1 =   1096.08 CM-1
 AVERAGE TRANSMITTANCE =0.2171

0INTEGRATED RADIANCE =  9.417E-03 WATTS CM-2 STER-1
 MINIMUM RADIANCE    =  9.330E-07 WATTS CM-2 STER-1 (CM-1)-1 AT     1204.0 CM-1
 MAXIMUM RADIANCE    =  1.423E-05 WATTS CM-2 STER-1 (CM-1)-1 AT      592.0 CM-1
 BOUNDARY TEMPERATURE =       0.00 K
 BOUNDARY EMISSIVITY =       0.980
0 CARD 5 *****    0
