*****  MODTRAN3 Version 1.3  12/1/95  *****
0 CARD 1  *****T   1    3    1    0    0    0    0    0    0    0    0    0   -1   0.000  -1.00
0 CARD 2  *****    2    0    0    0    0    0     0.000     0.000     0.000     0.000     0.000
0 CARD 3  *****    20.000     0.000   180.000     0.000     0.000     0.000    0
0 CARD 4  *****       100      1500         2         2
0 PROGRAM WILL COMPUTE RADIANCE                
0 ATMOSPHERIC MODEL
          TEMPERATURE =    1     TROPICAL MODEL      
          WATER VAPOR =    1     TROPICAL MODEL      
          OZONE       =    1     TROPICAL MODEL      
                      M4 =     1 M5 =     1 M6 =     1 MDEF =     1
0 AEROSOL MODEL
          REGIME                  AEROSOL TYPE             PROFILE                  SEASON

          BOUNDARY LAYER (0-2 KM) RURAL                      5.0 KM VIS AT SEA LEVEL
          TROPOSPHERE  (2-10KM)   TROPOSPHERIC             TROPOSPHERIC             SPRING-SUMMER       
          STRATOSPHERE (10-30KM)  BACKGROUND STRATO        BACKGROUND STRATO        SPRING-SUMMER       
          UPPER ATMOS (30-100KM)  METEORIC DUST            NORMAL              
0 SLANT PATH TO SPACE
          H1    =     20.000 KM
          HMIN  =      0.000 KM
          ANGLE =    180.000 DEG
0 FREQUENCY RANGE
             IV1 =       100 CM-1  (    100.00 MICROMETERS)
             IV2 =      1500 CM-1  (      6.67 MICROMETERS)
             IDV =         2 CM-1
           IFWHM =         2 CM-1
1
  ATMOSPHERIC PROFILES

   I     Z       P       T        N2       CNTMSLF MOL SCAT     N-1     O3 (UV)  O2 (UV)
        (KM)    (MB)    (K)            (MOL/CM2 KM)   (-)       (-)  (ATM CM/KM) (ATM CM/KM)

   1     0.00 1013.000  299.7  7.622E-01 0.000E+00 9.112E-01 2.620E-04 0.000E+00 3.342E+04
   2     1.00  904.000  293.7  6.321E-01 0.000E+00 8.298E-01 2.386E-04 0.000E+00 2.927E+04
   3     2.00  805.000  287.7  5.223E-01 0.000E+00 7.543E-01 2.169E-04 0.000E+00 2.562E+04
   4     3.00  715.000  283.7  4.238E-01 0.000E+00 6.794E-01 1.954E-04 0.000E+00 2.219E+04
   5     4.00  633.000  277.0  3.484E-01 0.000E+00 6.160E-01 1.772E-04 0.000E+00 1.945E+04
   6     5.00  559.000  270.3  2.853E-01 0.000E+00 5.575E-01 1.603E-04 0.000E+00 1.703E+04
   7     6.00  492.000  263.6  2.324E-01 0.000E+00 5.032E-01 1.447E-04 0.000E+00 1.490E+04
   8     7.00  432.000  257.0  1.885E-01 0.000E+00 4.531E-01 1.303E-04 0.000E+00 1.302E+04
   9     8.00  378.000  250.3  1.522E-01 0.000E+00 4.071E-01 1.171E-04 0.000E+00 1.138E+04
  10     9.00  329.000  243.6  1.217E-01 0.000E+00 3.641E-01 1.047E-04 0.000E+00 9.902E+03
  11    10.00  286.000  237.0  9.716E-02 0.000E+00 3.253E-01 9.356E-05 0.000E+00 8.629E+03
  12    11.00  247.000  230.1  7.688E-02 1.299E+15 2.894E-01 8.322E-05 0.000E+00 7.496E+03
  13    12.00  213.000  223.6  6.054E-02 1.618E+14 2.568E-01 7.385E-05 0.000E+00 6.507E+03
  14    13.00  182.000  217.0  4.693E-02 1.456E+13 2.261E-01 6.502E-05 0.000E+00 5.608E+03
  15    14.00  156.000  210.3  3.671E-02 4.497E+12 2.000E-01 5.751E-05 0.000E+00 4.870E+03
  16    15.00  132.000  203.7  2.802E-02 1.419E+12 1.747E-01 5.024E-05 0.000E+00 4.178E+03
  17    16.00  111.000  197.0  2.118E-02 6.036E+11 1.519E-01 4.368E-05 0.000E+00 3.572E+03
  18    17.00   93.700  194.8  1.544E-02 4.110E+11 1.297E-01 3.729E-05 0.000E+00 3.000E+03
  19    18.00   78.900  198.8  1.051E-02 2.516E+11 1.070E-01 3.077E-05 0.000E+00 2.433E+03
  20    19.00   66.600  202.7  7.202E-03 1.542E+11 8.857E-02 2.547E-05 0.000E+00 1.986E+03
  21    20.00   56.500  206.7  4.985E-03 1.067E+11 7.369E-02 2.119E-05 0.000E+00 1.633E+03
  22    21.00   48.000  210.7  3.463E-03 7.699E+10 6.141E-02 1.766E-05 0.000E+00 1.348E+03
  23    22.00   40.900  214.6  2.423E-03 6.016E+10 5.138E-02 1.478E-05 0.000E+00 1.119E+03
  24    23.00   35.000  217.0  1.736E-03 4.622E+10 4.348E-02 1.250E-05 0.000E+00 9.409E+02
  25    24.00   30.000  219.2  1.250E-03 4.052E+10 3.689E-02 1.061E-05 0.000E+00 7.942E+02
  26    25.00   25.700  221.4  8.990E-04 3.007E+10 3.129E-02 8.999E-06 0.000E+00 6.705E+02
  27    30.00   12.200  232.3  1.840E-04 9.323E+09 1.416E-02 4.072E-06 0.000E+00 2.992E+02
  28    35.00    6.000  243.1  4.064E-05 2.723E+09 6.654E-03 1.913E-06 0.000E+00 1.397E+02
  29    40.00    3.050  254.0  9.620E-06 8.236E+08 3.237E-03 9.309E-07 0.000E+00 6.779E+01
  30    45.00    1.590  264.8  2.405E-06 2.475E+08 1.619E-03 4.655E-07 0.000E+00 3.385E+01
  31    50.00    0.854  270.2  6.665E-07 7.597E+07 8.520E-04 2.450E-07 0.000E+00 1.781E+01
  32    70.00    0.058  218.9  4.684E-09 3.003E+05 7.143E-05 2.054E-08 0.000E+00 1.492E+00
  33   100.00    0.000  190.7  1.532E-13 7.763E-02 4.085E-07 1.175E-10 0.000E+00 6.532E-03
1
  ATMOSPHERIC PROFILES

   I     Z       P       T      CNTMFRN     HNO3    AEROSOL 1 AEROSOL 2 AEROSOL 3 AEROSOL 4 AER1*RH   CIRRUS         RH
        (KM)    (MB)    (K)   MOL/CM2 KM ATM CM/KM   (-)       (-)       (-)       (-)       (-)       (-)      (PERCNT)

   1     0.00 1013.000  299.7  0.000E+00 4.556E-06 7.700E-01 0.000E+00 0.000E+00 0.000E+00 3.546E+00 0.000E+00 0.000E+00
   2     1.00  904.000  293.7  0.000E+00 4.945E-06 7.700E-01 0.000E+00 0.000E+00 0.000E+00 3.546E+00 0.000E+00 0.000E+00
   3     2.00  805.000  287.7  0.000E+00 5.227E-06 6.210E-02 0.000E+00 0.000E+00 0.000E+00 2.860E-01 0.000E+00 0.000E+00
   4     3.00  715.000  283.7  0.000E+00 5.374E-06 0.000E+00 3.460E-02 0.000E+00 0.000E+00 0.000E+00 0.000E+00 0.000E+00
   5     4.00  633.000  277.0  0.000E+00 5.464E-06 0.000E+00 1.850E-02 0.000E+00 0.000E+00 0.000E+00 0.000E+00 0.000E+00
   6     5.00  559.000  270.3  0.000E+00 5.436E-06 0.000E+00 9.310E-03 0.000E+00 0.000E+00 0.000E+00 0.000E+00 0.000E+00
   7     6.00  492.000  263.6  0.000E+00 5.585E-06 0.000E+00 7.710E-03 0.000E+00 0.000E+00 0.000E+00 0.000E+00 0.000E+00
   8     7.00  432.000  257.0  0.000E+00 5.710E-06 0.000E+00 6.230E-03 0.000E+00 0.000E+00 0.000E+00 0.000E+00 0.000E+00
   9     8.00  378.000  250.3  0.000E+00 5.659E-06 0.000E+00 3.370E-03 0.000E+00 0.000E+00 0.000E+00 0.000E+00 0.000E+00
  10     9.00  329.000  243.6  0.000E+00 5.571E-06 0.000E+00 1.820E-03 0.000E+00 0.000E+00 0.000E+00 0.000E+00 0.000E+00
  11    10.00  286.000  237.0  0.000E+00 5.660E-06 0.000E+00 1.140E-03 0.000E+00 0.000E+00 0.000E+00 0.000E+00 0.000E+00
  12    11.00  247.000  230.1  1.780E+19 5.845E-06 0.000E+00 0.000E+00 7.990E-04 0.000E+00 0.000E+00 0.000E+00 1.315E+01
  13    12.00  213.000  223.6  5.573E+18 6.189E-06 0.000E+00 0.000E+00 6.410E-04 0.000E+00 0.000E+00 0.000E+00 9.253E+00
  14    13.00  182.000  217.0  1.472E+18 6.240E-06 0.000E+00 0.000E+00 5.170E-04 0.000E+00 0.000E+00 0.000E+00 5.881E+00
  15    14.00  156.000  210.3  7.236E+17 6.659E-06 0.000E+00 0.000E+00 4.420E-04 0.000E+00 0.000E+00 0.000E+00 7.410E+00
  16    15.00  132.000  203.7  3.551E+17 7.896E-06 0.000E+00 0.000E+00 3.950E-04 0.000E+00 0.000E+00 0.000E+00 9.923E+00
  17    16.00  111.000  197.0  2.014E+17 1.119E-05 0.000E+00 0.000E+00 3.820E-04 0.000E+00 0.000E+00 0.000E+00 1.677E+01
  18    17.00   93.700  194.8  1.419E+17 1.699E-05 0.000E+00 0.000E+00 4.250E-04 0.000E+00 0.000E+00 0.000E+00 1.924E+01
  19    18.00   78.900  198.8  9.158E+16 2.257E-05 0.000E+00 0.000E+00 5.200E-04 0.000E+00 0.000E+00 0.000E+00 8.321E+00
  20    19.00   66.600  202.7  5.934E+16 2.808E-05 0.000E+00 0.000E+00 5.810E-04 0.000E+00 0.000E+00 0.000E+00 3.752E+00
  21    20.00   56.500  206.7  4.107E+16 3.095E-05 0.000E+00 0.000E+00 5.890E-04 0.000E+00 0.000E+00 0.000E+00 1.818E+00
  22    21.00   48.000  210.7  2.908E+16 3.034E-05 0.000E+00 0.000E+00 5.020E-04 0.000E+00 0.000E+00 0.000E+00 9.217E-01
  23    22.00   40.900  214.6  2.150E+16 2.805E-05 0.000E+00 0.000E+00 4.200E-04 0.000E+00 0.000E+00 0.000E+00 5.033E-01
  24    23.00   35.000  217.0  1.595E+16 2.496E-05 0.000E+00 0.000E+00 3.000E-04 0.000E+00 0.000E+00 0.000E+00 3.313E-01
  25    24.00   30.000  219.2  1.267E+16 2.155E-05 0.000E+00 0.000E+00 1.980E-04 0.000E+00 0.000E+00 0.000E+00 2.401E-01
  26    25.00   25.700  221.4  9.258E+15 1.756E-05 0.000E+00 0.000E+00 1.310E-04 0.000E+00 0.000E+00 0.000E+00 1.611E-01
  27    30.00   12.200  232.3  2.333E+15 5.295E-06 0.000E+00 0.000E+00 3.320E-05 0.000E+00 0.000E+00 0.000E+00 2.817E-02
  28    35.00    6.000  243.1  5.924E+14 1.091E-06 0.000E+00 0.000E+00 0.000E+00 1.640E-05 0.000E+00 0.000E+00 5.440E-03
  29    40.00    3.050  254.0  1.585E+14 1.725E-07 0.000E+00 0.000E+00 0.000E+00 7.990E-06 0.000E+00 0.000E+00 1.173E-03
  30    45.00    1.590  264.8  4.345E+13 1.959E-08 0.000E+00 0.000E+00 0.000E+00 4.010E-06 0.000E+00 0.000E+00 2.777E-04
  31    50.00    0.854  270.2  1.267E+13 4.729E-09 0.000E+00 0.000E+00 0.000E+00 2.100E-06 0.000E+00 0.000E+00 1.041E-04
  32    70.00    0.058  218.9  6.679E+10 2.336E-10 0.000E+00 0.000E+00 0.000E+00 1.600E-07 0.000E+00 0.000E+00 6.767E-04
  33   100.00    0.000  190.7  1.942E+05 1.115E-12 0.000E+00 0.000E+00 0.000E+00 9.310E-10 0.000E+00 0.000E+00 1.583E-05
1
  ATMOSPHERIC PROFILES

   I      Z       P       T      H2O      O3       CO2      CO       CH4      N2O      O2       NH3      NO       NO2      SO2
         (KM)    (MB)    (K)  (                                 ATM CM/KM                                                     )
   1     0.00 1013.000  299.7  0.00E+00 0.00E+00 2.46E+01 1.37E-02 0.00E+00 2.91E-02 1.90E+04 4.55E-05 2.73E-05 2.09E-06 2.73E-05
   2     1.00  904.000  293.7  0.00E+00 0.00E+00 2.24E+01 1.20E-02 0.00E+00 2.65E-02 1.73E+04 4.15E-05 2.49E-05 1.91E-06 2.27E-05
   3     2.00  805.000  287.7  0.00E+00 0.00E+00 2.04E+01 1.05E-02 0.00E+00 2.41E-02 1.58E+04 3.49E-05 2.26E-05 1.73E-06 1.78E-05
   4     3.00  715.000  283.7  0.00E+00 0.00E+00 1.83E+01 9.16E-03 0.00E+00 2.17E-02 1.42E+04 2.58E-05 2.04E-05 1.56E-06 1.29E-05
   5     4.00  633.000  277.0  0.00E+00 0.00E+00 1.66E+01 8.08E-03 0.00E+00 1.97E-02 1.29E+04 1.77E-05 1.85E-05 1.42E-06 8.99E-06
   6     5.00  559.000  270.3  0.00E+00 0.00E+00 1.50E+01 7.26E-03 0.00E+00 1.78E-02 1.16E+04 1.14E-05 1.67E-05 1.28E-06 6.57E-06
   7     6.00  492.000  263.6  0.00E+00 0.00E+00 1.36E+01 6.48E-03 0.00E+00 1.61E-02 1.05E+04 7.34E-06 1.51E-05 1.16E-06 4.88E-06
   8     7.00  432.000  257.0  0.00E+00 0.00E+00 1.22E+01 5.65E-03 0.00E+00 1.45E-02 9.46E+03 4.47E-06 1.36E-05 1.04E-06 3.76E-06
   9     8.00  378.000  250.3  0.00E+00 0.00E+00 1.10E+01 4.82E-03 0.00E+00 1.30E-02 8.50E+03 2.64E-06 1.22E-05 9.36E-07 2.93E-06
  10     9.00  329.000  243.6  0.00E+00 0.00E+00 9.82E+00 3.98E-03 0.00E+00 1.16E-02 7.60E+03 1.37E-06 1.09E-05 8.44E-07 2.39E-06
  11    10.00  286.000  237.0  0.00E+00 0.00E+00 8.78E+00 3.24E-03 0.00E+00 1.03E-02 6.79E+03 6.60E-07 9.75E-06 7.74E-07 1.98E-06
  12    11.00  247.000  230.1  2.11E+00 0.00E+00 7.81E+00 2.59E-03 0.00E+00 9.08E-03 6.04E+03 3.15E-07 8.68E-06 7.58E-07 1.67E-06
  13    12.00  213.000  223.6  7.45E-01 0.00E+00 6.93E+00 2.01E-03 0.00E+00 7.94E-03 5.36E+03 1.62E-07 7.70E-06 8.08E-07 1.44E-06
  14    13.00  182.000  217.0  2.24E-01 0.00E+00 6.10E+00 1.44E-03 0.00E+00 6.89E-03 4.72E+03 7.05E-08 6.76E-06 1.01E-06 1.26E-06
  15    14.00  156.000  210.3  1.24E-01 0.00E+00 5.40E+00 1.00E-03 0.00E+00 5.99E-03 4.18E+03 2.22E-08 5.90E-06 1.49E-06 1.13E-06
  16    15.00  132.000  203.7  6.98E-02 0.00E+00 4.71E+00 6.88E-04 0.00E+00 5.14E-03 3.65E+03 7.80E-09 4.94E-06 2.99E-06 1.00E-06
  17    16.00  111.000  197.0  4.55E-02 0.00E+00 4.10E+00 4.66E-04 0.00E+00 4.37E-03 3.17E+03 3.20E-09 4.07E-06 4.84E-06 8.73E-07
  18    17.00   93.700  194.8  3.76E-02 0.00E+00 3.50E+00 3.23E-04 0.00E+00 3.61E-03 2.71E+03 1.43E-09 3.27E-06 6.73E-06 6.96E-07
  19    18.00   78.900  198.8  2.94E-02 0.00E+00 2.89E+00 2.10E-04 0.00E+00 2.86E-03 2.23E+03 7.16E-10 2.57E-06 8.24E-06 5.11E-07
  20    19.00   66.600  202.7  2.30E-02 0.00E+00 2.39E+00 1.37E-04 0.00E+00 2.24E-03 1.85E+03 3.51E-10 2.16E-06 9.38E-06 3.51E-07
  21    20.00   56.500  206.7  1.91E-02 0.00E+00 1.99E+00 9.80E-05 0.00E+00 1.74E-03 1.54E+03 1.77E-10 1.88E-06 1.02E-05 2.35E-07
  22    21.00   48.000  210.7  1.63E-02 0.00E+00 1.66E+00 7.56E-05 0.00E+00 1.35E-03 1.28E+03 1.18E-10 1.70E-06 1.08E-05 1.64E-07
  23    22.00   40.900  214.6  1.44E-02 0.00E+00 1.39E+00 6.33E-05 0.00E+00 1.05E-03 1.07E+03 8.83E-11 1.58E-06 1.11E-05 1.17E-07
  24    23.00   35.000  217.0  1.26E-02 0.00E+00 1.17E+00 5.68E-05 0.00E+00 8.55E-04 9.08E+02 6.91E-11 1.56E-06 1.12E-05 8.99E-08
  25    24.00   30.000  219.2  1.18E-02 0.00E+00 9.95E-01 5.16E-05 0.00E+00 6.91E-04 7.71E+02 5.31E-11 1.66E-06 1.13E-05 7.01E-08
  26    25.00   25.700  221.4  1.02E-02 0.00E+00 8.44E-01 4.76E-05 0.00E+00 5.49E-04 6.54E+02 3.85E-11 2.14E-06 1.17E-05 5.47E-08
  27    30.00   12.200  232.3  5.66E-03 0.00E+00 3.82E-01 2.82E-05 0.00E+00 2.00E-04 2.96E+02 8.98E-12 3.47E-06 8.72E-06 1.90E-08
  28    35.00    6.000  243.1  3.06E-03 0.00E+00 1.80E-01 1.65E-05 0.00E+00 6.17E-05 1.39E+02 1.21E-12 4.75E-06 4.84E-06 7.71E-09
  29    40.00    3.050  254.0  1.68E-03 0.00E+00 8.73E-02 1.00E-05 0.00E+00 1.46E-05 6.76E+01 9.51E-14 3.62E-06 1.30E-06 4.40E-09
  30    45.00    1.590  264.8  9.22E-04 0.00E+00 4.37E-02 6.45E-06 0.00E+00 2.57E-06 3.38E+01 4.82E-15 1.89E-06 1.86E-07 3.40E-09
  31    50.00    0.854  270.2  5.11E-04 0.00E+00 2.30E-02 4.34E-06 0.00E+00 4.05E-07 1.78E+01 6.07E-16 8.77E-07 3.77E-08 3.03E-09
  32    70.00    0.058  218.9  3.21E-05 0.00E+00 1.93E-03 1.38E-06 0.00E+00 8.20E-09 1.49E+00 1.83E-17 8.21E-08 1.65E-09 3.08E-10
  33   100.00    0.000  190.7  1.63E-08 0.00E+00 6.51E-06 6.96E-07 0.00E+00 1.36E-11 6.53E-03 6.04E-20 8.49E-08 6.94E-12 1.46E-14
1
  ATMOSPHERIC PROFILES

   I      Z       P       T     CFC-11   CFC-12   CFC-13   CFC-14   CFC-22   CFC-113  CFC-114  CFC-115  CLONO2    HNO4    CHCL2F 
                                 CCL4     N2O5  
         (KM)    (MB)    (K)  (                                 ATM CM/KM                                                     )
   1     0.00 1013.000  299.7  1.27E-05 2.19E-05 9.11E-14 9.11E-14 5.46E-06 1.73E-06 1.09E-06 9.11E-14 5.24E-07 3.95E-08 9.11E-14
                               1.18E-05 2.20E-11
   2     1.00  904.000  293.7  1.16E-05 1.99E-05 8.29E-14 8.29E-14 4.97E-06 1.58E-06 9.95E-07 8.29E-14 4.25E-07 1.77E-07 8.29E-14
                               1.08E-05 7.91E-11
   3     2.00  805.000  287.7  1.06E-05 1.81E-05 7.54E-14 7.54E-14 4.52E-06 1.43E-06 9.05E-07 7.54E-14 3.40E-07 2.89E-07 7.54E-14
                               9.80E-06 1.26E-10
   4     3.00  715.000  283.7  9.51E-06 1.63E-05 6.79E-14 6.79E-14 4.06E-06 1.29E-06 8.15E-07 6.79E-14 2.64E-07 3.76E-07 6.79E-14
                               8.83E-06 1.61E-10
   5     4.00  633.000  277.0  8.62E-06 1.48E-05 6.16E-14 6.16E-14 3.68E-06 1.17E-06 7.39E-07 6.16E-14 2.01E-07 4.46E-07 6.16E-14
                               8.00E-06 1.90E-10
   6     5.00  559.000  270.3  7.80E-06 1.34E-05 5.57E-14 5.57E-14 3.33E-06 1.06E-06 6.69E-07 5.57E-14 1.53E-07 1.01E-06 5.57E-14
                               7.23E-06 2.01E-10
   7     6.00  492.000  263.6  7.04E-06 1.21E-05 5.03E-14 5.03E-14 3.00E-06 9.55E-07 6.03E-07 5.03E-14 1.13E-07 1.46E-06 5.03E-14
                               6.51E-06 2.07E-10
   8     7.00  432.000  257.0  6.34E-06 1.09E-05 4.53E-14 4.53E-14 2.70E-06 8.60E-07 5.43E-07 4.53E-14 7.90E-08 1.81E-06 4.53E-14
                               5.86E-06 2.10E-10
   9     8.00  378.000  250.3  5.70E-06 9.76E-06 4.07E-14 4.07E-14 2.43E-06 7.73E-07 4.88E-07 4.07E-14 5.04E-08 2.07E-06 4.07E-14
                               5.25E-06 2.10E-10
  10     9.00  329.000  243.6  5.09E-06 8.72E-06 3.64E-14 3.64E-14 2.17E-06 6.91E-07 4.37E-07 3.64E-14 4.40E-08 1.79E-06 3.64E-14
                               4.69E-06 2.10E-10
  11    10.00  286.000  237.0  4.54E-06 7.79E-06 3.25E-14 3.25E-14 1.94E-06 6.16E-07 3.90E-07 3.25E-14 3.82E-08 1.54E-06 3.25E-14
                               4.19E-06 2.07E-10
  12    11.00  247.000  230.1  4.03E-06 6.92E-06 2.89E-14 2.89E-14 1.72E-06 5.47E-07 3.47E-07 2.89E-14 3.31E-08 1.32E-06 2.89E-14
                               3.73E-06 2.02E-10
  13    12.00  213.000  223.6  3.57E-06 6.13E-06 2.57E-14 2.57E-14 1.53E-06 4.85E-07 3.08E-07 2.57E-14 2.85E-08 1.12E-06 2.57E-14
                               3.31E-06 1.94E-10
  14    13.00  182.000  217.0  3.05E-06 5.32E-06 2.26E-14 2.26E-14 1.33E-06 4.19E-07 2.68E-07 2.26E-14 1.81E-07 1.28E-06 2.26E-14
                               2.82E-06 9.96E-09
  15    14.00  156.000  210.3  2.62E-06 4.64E-06 2.00E-14 2.00E-14 1.17E-06 3.64E-07 2.35E-07 2.00E-14 2.98E-07 1.39E-06 2.00E-14
                               2.42E-06 1.75E-08
  16    15.00  132.000  203.7  2.22E-06 3.99E-06 1.75E-14 1.75E-14 1.01E-06 3.12E-07 2.03E-07 1.75E-14 3.81E-07 1.44E-06 1.75E-14
                               2.04E-06 2.28E-08
  17    16.00  111.000  197.0  1.87E-06 3.42E-06 1.52E-14 1.52E-14 8.68E-07 2.66E-07 1.75E-07 1.52E-14 4.36E-07 1.44E-06 1.52E-14
                               1.72E-06 2.64E-08
  18    17.00   93.700  194.8  1.46E-06 2.78E-06 1.30E-14 1.30E-14 7.21E-07 2.14E-07 1.45E-07 1.30E-14 1.32E-06 1.85E-06 1.30E-14
                               1.32E-06 1.14E-07
  19    18.00   78.900  198.8  1.09E-06 2.19E-06 1.07E-14 1.07E-14 5.78E-07 1.66E-07 1.16E-07 1.07E-14 1.86E-06 2.03E-06 1.07E-14
                               9.69E-07 1.69E-07
  20    19.00   66.600  202.7  8.05E-07 1.72E-06 8.85E-15 8.85E-15 4.65E-07 1.29E-07 9.32E-08 8.85E-15 2.19E-06 2.10E-06 8.85E-15
                               7.03E-07 2.02E-07
  21    20.00   56.500  206.7  5.91E-07 1.35E-06 7.36E-15 7.36E-15 3.75E-07 1.00E-07 7.51E-08 7.36E-15 2.36E-06 2.10E-06 7.36E-15
                               5.02E-07 2.20E-07
  22    21.00   48.000  210.7  4.21E-07 1.05E-06 6.14E-15 6.14E-15 3.00E-07 7.60E-08 5.99E-08 6.14E-15 2.82E-06 2.16E-06 6.14E-15
                               3.51E-07 2.54E-07
  23    22.00   40.900  214.6  2.93E-07 8.11E-07 5.13E-15 5.13E-15 2.41E-07 5.73E-08 4.78E-08 5.13E-15 3.08E-06 2.15E-06 5.13E-15
                               2.37E-07 2.72E-07
  24    23.00   35.000  217.0  1.98E-07 6.30E-07 4.35E-15 4.35E-15 1.95E-07 4.32E-08 3.85E-08 4.35E-15 3.22E-06 2.11E-06 4.35E-15
                               1.52E-07 2.80E-07
  25    24.00   30.000  219.2  1.25E-07 4.87E-07 3.69E-15 3.69E-15 1.59E-07 3.21E-08 3.10E-08 3.69E-15 3.24E-06 2.04E-06 3.69E-15
                               8.85E-08 2.81E-07
  26    25.00   25.700  221.4  8.53E-08 3.72E-07 3.13E-15 3.13E-15 1.28E-07 2.38E-08 2.49E-08 3.13E-15 3.04E-06 1.82E-06 3.13E-15
                               5.89E-08 2.41E-07
  27    30.00   12.200  232.3  5.52E-09 8.33E-08 1.41E-15 1.41E-15 4.28E-08 4.12E-09 7.97E-09 1.41E-15 1.61E-06 7.22E-07 1.41E-15
                               2.48E-09 7.81E-08
  28    35.00    6.000  243.1  1.32E-10 1.42E-08 6.65E-16 6.65E-16 1.38E-08 4.77E-10 2.43E-09 6.65E-16 3.48E-07 9.77E-08 6.65E-16
                               2.63E-11 7.19E-09
  29    40.00    3.050  254.0  5.98E-13 1.97E-09 3.23E-16 3.23E-16 4.50E-09 3.98E-11 7.50E-10 3.23E-16 1.38E-08 3.22E-09 3.23E-16
                               1.28E-14 6.89E-11
  30    45.00    1.590  264.8  1.49E-14 3.45E-10 1.62E-16 1.62E-16 1.68E-09 5.20E-12 2.62E-10 1.62E-16 2.72E-10 1.41E-10 1.62E-16
                               9.01E-17 6.37E-13
  31    50.00    0.854  270.2  5.08E-16 7.25E-11 8.51E-17 8.51E-17 7.48E-10 8.43E-13 1.06E-10 8.51E-17 3.97E-12 6.50E-12 8.51E-17
                               9.31E-19 5.35E-15
  32    70.00    0.058  218.9  3.63E-21 2.79E-13 7.14E-18 7.14E-18 5.13E-11 1.25E-15 4.18E-12 7.14E-18 5.16E-19 2.29E-16 7.14E-18
                               7.05E-26 5.85E-23
  33   100.00    0.000  190.7  1.27E-30 1.01E-18 4.08E-20 4.08E-20 7.31E-14 5.35E-22 8.70E-16 4.08E-20 3.30E-35 1.36E-31 4.08E-20
                               2.08E-38 0.00E+00


 CASE 3A: GIVEN H1,H2=SPACE,ANGLE



 TANGENT PATH WITH H1 =     20.000 AND ANGLE =    180.000 INTERSECTS THE EARTH

          H2 HAS BEEN RESET TO 0.0 AND LEN TO 0



 SLANT PATH PARAMETERS IN STANDARD FORM

          H1      =     20.000 KM
          H2      =      0.000 KM
          ANGLE   =    180.000 DEG
          PHI     =      0.000 DEG
          HMIN    =      0.000 KM
          LEN     =          0
1CALCULATION OF THE REFRACTED PATH THROUGH THE ATMOSPHERE


  I       ALTITUDE        THETA  DRANGE    RANGE    DBETA     BETA     PHI     DBEND  BENDING    PBAR    TBAR   RHOBAR
      FROM       TO
      (KM)      (KM)      (DEG)    (KM)     (KM)    (DEG)    (DEG)    (DEG)    (DEG)    (DEG)    (MB)    (K)  (GM CM-3)

          H2 TO H1

  1    0.000    1.000    0.000    1.000    1.000    0.000    0.000  180.000    0.000    0.000  958.316  296.74 1.12E-03
  2    1.000    2.000    0.000    1.000    2.000    0.000    0.000  180.000    0.000    0.000  854.330  290.74 1.02E-03
  3    2.000    3.000    0.000    1.000    3.000    0.000    0.000  180.000    0.000    0.000  759.895  285.73 9.26E-04
  4    3.000    4.000    0.000    1.000    4.000    0.000    0.000  180.000    0.000    0.000  673.837  280.39 8.36E-04
  5    4.000    5.000    0.000    1.000    5.000    0.000    0.000  180.000    0.000    0.000  595.849  273.69 7.58E-04
  6    5.000    6.000    0.000    1.000    6.000    0.000    0.000  180.000    0.000    0.000  525.360  266.99 6.85E-04
  7    6.000    7.000    0.000    1.000    7.000    0.000    0.000  180.000    0.000    0.000  461.873  260.34 6.17E-04
  8    7.000    8.000    0.000    1.000    8.000    0.000    0.000  180.000    0.000    0.000  404.881  253.70 5.55E-04
  9    8.000    9.000    0.000    1.000    9.000    0.000    0.000  180.000    0.000    0.000  353.389  247.00 4.98E-04
 10    9.000   10.000    0.000    1.000   10.000    0.000    0.000  180.000    0.000    0.000  307.402  240.35 4.45E-04
 11   10.000   11.000    0.000    1.000   11.000    0.000    0.000  180.000    0.000    0.000  266.404  233.60 3.97E-04
 12   11.000   12.000    0.000    1.000   12.000    0.000    0.000  180.000    0.000    0.000  229.919  226.90 3.52E-04
 13   12.000   13.000    0.000    1.000   13.000    0.000    0.000  180.000    0.000    0.000  197.423  220.35 3.12E-04
 14   13.000   14.000    0.000    1.000   14.000    0.000    0.000  180.000    0.000    0.000  168.932  213.70 2.75E-04
 15   14.000   15.000    0.000    1.000   15.000    0.000    0.000  180.000    0.000    0.000  143.936  207.06 2.42E-04
 16   15.000   16.000    0.000    1.000   16.000    0.000    0.000  180.000    0.000    0.000  121.442  200.41 2.11E-04
 17   16.000   17.000    0.000    1.000   17.000    0.000    0.000  180.000    0.000    0.000  102.334  195.93 1.82E-04
 18   17.000   18.000    0.000    1.000   18.000    0.000    0.000  180.000    0.000    0.000   86.325  196.73 1.52E-04
 19   18.000   19.000    0.000    1.000   19.000    0.000    0.000  180.000    0.000    0.000   72.770  200.68 1.26E-04
 20   19.000   20.000    0.000    1.000   20.000    0.000    0.000  180.000    0.000    0.000   61.566  204.63 1.05E-04




1CUMULATIVE ABSORBER AMOUNTS FOR THE PATH FROM H1 TO Z

  J     Z        TBAR     HNO3        O3 UV      CNTMSLF1   CNTMSLF2    CNTMFRN      O2
       (KM)       (K)   (ATM CM)    (ATM CM)    (MOL CM-2)  (MOL CM-2)  (MOL CM-2)(MOL CM-2)

  1   19.000   204.63   2.951E-05   0.000E+00   1.290E+11   3.273E+11   4.965E+16   1.804E+03
  2   18.000   200.68   5.484E-05   0.000E+00   3.279E+11   8.541E+11   1.239E+17   4.006E+03
  3   17.000   196.73   7.462E-05   0.000E+00   6.528E+11   1.750E+12   2.388E+17   6.712E+03
  4   16.000   195.93   8.871E-05   0.000E+00   1.154E+12   3.143E+12   4.087E+17   9.990E+03
  5   15.000   200.41   9.826E-05   0.000E+00   2.108E+12   5.676E+12   6.797E+17   1.386E+04
  6   14.000   207.06   1.055E-04   0.000E+00   4.777E+12   1.227E+13   1.197E+18   1.837E+04
  7   13.000   213.70   1.120E-04   0.000E+00   1.334E+13   3.185E+13   2.251E+18   2.360E+04
  8   12.000   220.35   1.182E-04   0.000E+00   7.449E+13   1.603E+14   5.332E+18   2.965E+04
  9   11.000   226.90   1.242E-04   0.000E+00   6.205E+14   1.208E+15   1.586E+19   3.664E+04
 10   10.000   233.60   1.300E-04   0.000E+00   1.270E+15   2.334E+15   2.476E+19   4.469E+04
 11    9.000   240.35   1.356E-04   0.000E+00   1.270E+15   2.334E+15   2.476E+19   5.394E+04
 12    8.000   247.00   1.412E-04   0.000E+00   1.270E+15   2.334E+15   2.476E+19   6.456E+04
 13    7.000   253.70   1.469E-04   0.000E+00   1.270E+15   2.334E+15   2.476E+19   7.674E+04
 14    6.000   260.34   1.525E-04   0.000E+00   1.270E+15   2.334E+15   2.476E+19   9.068E+04
 15    5.000   266.99   1.580E-04   0.000E+00   1.270E+15   2.334E+15   2.476E+19   1.066E+05
 16    4.000   273.69   1.635E-04   0.000E+00   1.270E+15   2.334E+15   2.476E+19   1.248E+05
 17    3.000   280.39   1.689E-04   0.000E+00   1.270E+15   2.334E+15   2.476E+19   1.456E+05
 18    2.000   285.73   1.742E-04   0.000E+00   1.270E+15   2.334E+15   2.476E+19   1.695E+05
 19    1.000   290.74   1.793E-04   0.000E+00   1.270E+15   2.334E+15   2.476E+19   1.969E+05
 20    0.000   296.74   1.840E-04   0.000E+00   1.270E+15   2.334E+15   2.476E+19   2.282E+05



1 J     Z       N2 CONT    MOL SCAT       AER 1       AER 2       AER 3       AER 4       CIRRUS
       (KM)

  1   19.000   6.026E-03   8.090E-02   0.000E+00   0.000E+00   5.850E-04   0.000E+00   0.000E+00
  2   18.000   1.478E-02   1.784E-01   0.000E+00   0.000E+00   1.136E-03   0.000E+00   0.000E+00
  3   17.000   2.759E-02   2.964E-01   0.000E+00   0.000E+00   1.608E-03   0.000E+00   0.000E+00
  4   16.000   4.575E-02   4.368E-01   0.000E+00   0.000E+00   2.012E-03   0.000E+00   0.000E+00
  5   15.000   7.019E-02   5.999E-01   0.000E+00   0.000E+00   2.400E-03   0.000E+00   0.000E+00
  6   14.000   1.024E-01   7.869E-01   0.000E+00   0.000E+00   2.818E-03   0.000E+00   0.000E+00
  7   13.000   1.440E-01   9.997E-01   0.000E+00   0.000E+00   3.297E-03   0.000E+00   0.000E+00
  8   12.000   1.974E-01   1.241E+00   0.000E+00   0.000E+00   3.873E-03   0.000E+00   0.000E+00
  9   11.000   2.658E-01   1.514E+00   0.000E+00   0.000E+00   4.590E-03   0.000E+00   0.000E+00
 10   10.000   3.524E-01   1.821E+00   0.000E+00   5.700E-04   4.990E-03   0.000E+00   0.000E+00
 11    9.000   4.614E-01   2.165E+00   0.000E+00   2.024E-03   4.990E-03   0.000E+00   0.000E+00
 12    8.000   5.978E-01   2.550E+00   0.000E+00   4.540E-03   4.990E-03   0.000E+00   0.000E+00
 13    7.000   7.674E-01   2.980E+00   0.000E+00   9.194E-03   4.990E-03   0.000E+00   0.000E+00
 14    6.000   9.771E-01   3.458E+00   0.000E+00   1.614E-02   4.990E-03   0.000E+00   0.000E+00
 15    5.000   1.235E+00   3.987E+00   0.000E+00   2.462E-02   4.990E-03   0.000E+00   0.000E+00
 16    4.000   1.551E+00   4.574E+00   0.000E+00   3.801E-02   4.990E-03   0.000E+00   0.000E+00
 17    3.000   1.936E+00   5.221E+00   0.000E+00   6.372E-02   4.990E-03   0.000E+00   0.000E+00
 18    2.000   2.407E+00   5.937E+00   3.105E-02   8.102E-02   4.990E-03   0.000E+00   0.000E+00
 19    1.000   2.983E+00   6.729E+00   3.122E-01   8.102E-02   4.990E-03   0.000E+00   0.000E+00
 20    0.000   3.678E+00   7.598E+00   1.082E+00   8.102E-02   4.990E-03   0.000E+00   0.000E+00



1  J    Z       H2O       O3        CO2       CO        CH4       N2O       O2        NH3       NO        NO2       SO2
      (KM)    (                                                      ATM CM                                             )

   1   19.00  2.10E-02  0.00E+00  2.18E+00  1.16E-04  0.00E+00  1.98E-03  1.69E+03  2.55E-10  2.02E-06  9.81E-06  2.89E-07
   2   18.00  4.71E-02  0.00E+00  4.81E+00  2.88E-04  0.00E+00  4.51E-03  3.73E+03  7.67E-10  4.37E-06  1.86E-05  7.16E-07
   3   17.00  8.04E-02  0.00E+00  8.00E+00  5.50E-04  0.00E+00  7.73E-03  6.19E+03  1.80E-09  7.27E-06  2.61E-05  1.31E-06
   4   16.00  1.22E-01  0.00E+00  1.18E+01  9.40E-04  0.00E+00  1.17E-02  9.12E+03  3.99E-09  1.09E-05  3.19E-05  2.10E-06
   5   15.00  1.79E-01  0.00E+00  1.62E+01  1.51E-03  0.00E+00  1.64E-02  1.25E+04  9.16E-09  1.54E-05  3.58E-05  3.03E-06
   6   14.00  2.73E-01  0.00E+00  2.12E+01  2.35E-03  0.00E+00  2.20E-02  1.64E+04  2.29E-08  2.08E-05  3.80E-05  4.10E-06
   7   13.00  4.42E-01  0.00E+00  2.70E+01  3.55E-03  0.00E+00  2.84E-02  2.09E+04  6.47E-08  2.71E-05  3.93E-05  5.29E-06
   8   12.00  8.76E-01  0.00E+00  3.35E+01  5.26E-03  0.00E+00  3.58E-02  2.59E+04  1.75E-07  3.44E-05  4.02E-05  6.64E-06
   9   11.00  2.19E+00  0.00E+00  4.08E+01  7.55E-03  0.00E+00  4.43E-02  3.16E+04  4.05E-07  4.25E-05  4.10E-05  8.19E-06
  10   10.00  3.24E+00  0.00E+00  4.91E+01  1.05E-02  0.00E+00  5.40E-02  3.80E+04  8.71E-07  5.17E-05  4.17E-05  1.00E-05
  11    9.00  3.24E+00  0.00E+00  5.84E+01  1.40E-02  0.00E+00  6.50E-02  4.52E+04  1.84E-06  6.21E-05  4.26E-05  1.22E-05
  12    8.00  3.24E+00  0.00E+00  6.88E+01  1.84E-02  0.00E+00  7.73E-02  5.33E+04  3.78E-06  7.36E-05  4.34E-05  1.48E-05
  13    7.00  3.24E+00  0.00E+00  8.04E+01  2.37E-02  0.00E+00  9.10E-02  6.22E+04  7.25E-06  8.65E-05  4.44E-05  1.82E-05
  14    6.00  3.24E+00  0.00E+00  9.33E+01  2.97E-02  0.00E+00  1.06E-01  7.22E+04  1.30E-05  1.01E-04  4.55E-05  2.25E-05
  15    5.00  3.24E+00  0.00E+00  1.08E+02  3.66E-02  0.00E+00  1.23E-01  8.33E+04  2.23E-05  1.17E-04  4.68E-05  2.81E-05
  16    4.00  3.24E+00  0.00E+00  1.23E+02  4.42E-02  0.00E+00  1.42E-01  9.55E+04  3.66E-05  1.34E-04  4.81E-05  3.59E-05
  17    3.00  3.24E+00  0.00E+00  1.41E+02  5.28E-02  0.00E+00  1.63E-01  1.09E+05  5.81E-05  1.54E-04  4.96E-05  4.67E-05
  18    2.00  3.24E+00  0.00E+00  1.60E+02  6.27E-02  0.00E+00  1.86E-01  1.24E+05  8.82E-05  1.75E-04  5.12E-05  6.19E-05
  19    1.00  3.24E+00  0.00E+00  1.82E+02  7.39E-02  0.00E+00  2.11E-01  1.41E+05  1.26E-04  1.99E-04  5.31E-05  8.21E-05
  20    0.00  3.24E+00  0.00E+00  2.05E+02  8.68E-02  0.00E+00  2.39E-01  1.59E+05  1.70E-04  2.25E-04  5.51E-05  1.07E-04



1  J    Z      CFC-11    CFC-12    CFC-13    CFC-14    CFC-22    CFC-113   CFC-114   CFC-115   CLONO2     HNO4     CHCL2F 
                CCL4      N2O5  
      (KM)    (                                                   ATM CM                                                )

   1   19.00  6.92E-07  1.53E-06  8.08E-15  8.08E-15  4.18E-07  1.14E-07  8.38E-08  8.08E-15  2.27E-06  2.10E-06  8.08E-15
              5.97E-07  2.11E-07
   2   18.00  1.63E-06  3.47E-06  1.78E-14  1.78E-14  9.37E-07  2.61E-07  1.88E-07  1.78E-14  4.30E-06  4.17E-06  1.78E-14
              1.43E-06  3.97E-07
   3   17.00  2.89E-06  5.95E-06  2.96E-14  2.96E-14  1.58E-06  4.50E-07  3.18E-07  2.96E-14  5.89E-06  6.11E-06  2.96E-14
              2.56E-06  5.38E-07
   4   16.00  4.54E-06  9.04E-06  4.37E-14  4.37E-14  2.38E-06  6.89E-07  4.77E-07  4.37E-14  6.76E-06  7.75E-06  4.37E-14
              4.07E-06  6.09E-07
   5   15.00  6.58E-06  1.27E-05  5.99E-14  5.99E-14  3.31E-06  9.77E-07  6.66E-07  5.99E-14  7.17E-06  9.19E-06  5.99E-14
              5.94E-06  6.33E-07
   6   14.00  8.99E-06  1.70E-05  7.86E-14  7.86E-14  4.40E-06  1.31E-06  8.84E-07  7.86E-14  7.51E-06  1.06E-05  7.86E-14
              8.17E-06  6.53E-07
   7   13.00  1.18E-05  2.20E-05  9.99E-14  9.99E-14  5.65E-06  1.70E-06  1.14E-06  9.99E-14  7.75E-06  1.19E-05  9.99E-14
              1.08E-05  6.67E-07
   8   12.00  1.51E-05  2.77E-05  1.24E-13  1.24E-13  7.07E-06  2.16E-06  1.42E-06  1.24E-13  7.86E-06  1.31E-05  1.24E-13
              1.38E-05  6.72E-07
   9   11.00  1.89E-05  3.42E-05  1.51E-13  1.51E-13  8.69E-06  2.67E-06  1.75E-06  1.51E-13  7.89E-06  1.44E-05  1.51E-13
              1.74E-05  6.72E-07
  10   10.00  2.32E-05  4.16E-05  1.82E-13  1.82E-13  1.05E-05  3.25E-06  2.12E-06  1.82E-13  7.92E-06  1.58E-05  1.82E-13
              2.13E-05  6.72E-07
  11    9.00  2.80E-05  4.98E-05  2.16E-13  2.16E-13  1.26E-05  3.91E-06  2.53E-06  2.16E-13  7.96E-06  1.74E-05  2.16E-13
              2.58E-05  6.73E-07
  12    8.00  3.34E-05  5.91E-05  2.55E-13  2.55E-13  1.49E-05  4.64E-06  2.99E-06  2.55E-13  8.01E-06  1.94E-05  2.55E-13
              3.07E-05  6.73E-07
  13    7.00  3.94E-05  6.94E-05  2.98E-13  2.98E-13  1.74E-05  5.45E-06  3.51E-06  2.98E-13  8.07E-06  2.13E-05  2.98E-13
              3.63E-05  6.73E-07
  14    6.00  4.61E-05  8.08E-05  3.46E-13  3.46E-13  2.03E-05  6.36E-06  4.08E-06  3.46E-13  8.17E-06  2.29E-05  3.46E-13
              4.24E-05  6.73E-07
  15    5.00  5.35E-05  9.35E-05  3.98E-13  3.98E-13  2.35E-05  7.37E-06  4.72E-06  3.98E-13  8.30E-06  2.42E-05  3.98E-13
              4.93E-05  6.74E-07
  16    4.00  6.17E-05  1.08E-04  4.57E-13  4.57E-13  2.70E-05  8.48E-06  5.42E-06  4.57E-13  8.48E-06  2.49E-05  4.57E-13
              5.69E-05  6.74E-07
  17    3.00  7.08E-05  1.23E-04  5.22E-13  5.22E-13  3.08E-05  9.71E-06  6.20E-06  5.22E-13  8.71E-06  2.53E-05  5.22E-13
              6.53E-05  6.74E-07
  18    2.00  8.08E-05  1.40E-04  5.93E-13  5.93E-13  3.51E-05  1.11E-05  7.05E-06  5.93E-13  9.01E-06  2.56E-05  5.93E-13
              7.46E-05  6.74E-07
  19    1.00  9.18E-05  1.59E-04  6.72E-13  6.72E-13  3.98E-05  1.26E-05  8.00E-06  6.72E-13  9.39E-06  2.59E-05  6.72E-13
              8.49E-05  6.74E-07
  20    0.00  1.04E-04  1.80E-04  7.59E-13  7.59E-13  4.51E-05  1.42E-05  9.05E-06  7.59E-13  9.86E-06  2.60E-05  7.59E-13
              9.62E-05  6.74E-07


0SUMMARY OF THE GEOMETRY CALCULATION

          H1      =     20.000 KM
          H2      =      0.000 KM
          ANGLE   =    180.000 DEG
          RANGE   =     20.000 KM
          BETA    =      0.000 DEG
          PHI     =      0.000 DEG
          HMIN    =      0.000 KM
          BENDING =      0.000 DEG
          LEN     =          0




1EQUIVALENT SEA LEVEL TOTAL ABSORBER AMOUNTS

                 HNO3      O3 UV       CNTMSLF1    CNTMSLF2   CNTMFRN
               (ATM CM)   (ATM CM)     (MOL CM-2)  (MOL CM-2)  (MOL CM-2)  (MOL CM-2)

             1.840E-04   0.000E+00   1.270E+15   2.334E+15   2.476E+19


              N2 CONT    MOL SCAT       AER 1       AER 2       AER 3       AER 4     CIRRUS      MEAN RH
                                                                                                  (PRCNT)

             3.678E+00   7.598E+00   1.082E+00   8.102E-02   4.990E-03   0.000E+00   0.000E+00        0.00


                 H2O        O3          CO2         CO          CH4         N2O          O2
               (                                        ATM CM                            )

             3.244E+00   0.000E+00   2.050E+02   8.677E-02   0.000E+00   2.387E-01   1.587E+05

                 NH3        NO          NO2         SO2
                 (               ATM CM               )

             1.697E-04   2.250E-04   5.505E-05   1.070E-04

             CFC-11      CFC-12      CFC-13      CFC-14      CFC-22      CFC-113     CFC-114
                 (                                      ATM CM                            )

             1.040E-04   1.801E-04   7.593E-13   7.593E-13   4.506E-05   1.422E-05   9.047E-06

             CFC-115     CLONO2       HNO4       CHCL2F       CCL4        N2O5  
                 (                                      ATM CM                            )

             7.593E-13   9.861E-06   2.599E-05   7.593E-13   9.622E-05   6.742E-07
1                                             RADIANCE(WATTS/CM2-STER-XXX)
0  FREQ   WAVLEN    PATH THERMAL      SURFACE EMISSION    SURFACE REFLECTED     TOTAL RADIANCE   INTEGRAL    TOTAL
  (CM-1) (MICRN)    (CM-1)   (MICRN)    (CM-1)   (MICRN)    (CM-1)   (MICRN)    (CM-1)   (MICRN)    (CM-1)   TRANS

    100. 100.000  1.22E-06  1.22E-06  1.17E-08  1.17E-08  0.00E+00  0.00E+00  1.23E-06  1.23E-06  1.23E-06  0.00615
    102.  98.039  1.05E-06  1.10E-06  3.83E-07  3.99E-07  0.00E+00  0.00E+00  1.44E-06  1.50E-06  4.11E-06  0.19324
    104.  96.154  1.12E-06  1.21E-06  3.65E-07  3.95E-07  0.00E+00  0.00E+00  1.48E-06  1.60E-06  7.07E-06  0.18205
    106.  94.340  1.21E-06  1.37E-06  2.42E-07  2.72E-07  0.00E+00  0.00E+00  1.46E-06  1.64E-06  9.99E-06  0.11418
    108.  92.593  8.72E-07  1.02E-06  9.04E-07  1.05E-06  0.00E+00  0.00E+00  1.78E-06  2.07E-06  1.35E-05  0.41625
    110.  90.909  8.10E-07  9.80E-07  1.04E-06  1.25E-06  0.00E+00  0.00E+00  1.85E-06  2.23E-06  1.72E-05  0.46685
    112.  89.286  1.08E-06  1.36E-06  7.00E-07  8.78E-07  0.00E+00  0.00E+00  1.78E-06  2.24E-06  2.08E-05  0.30137
    114.  87.719  3.86E-07  5.01E-07  1.84E-06  2.39E-06  0.00E+00  0.00E+00  2.22E-06  2.89E-06  2.52E-05  0.77420
    116.  86.207  5.66E-07  7.61E-07  1.66E-06  2.23E-06  0.00E+00  0.00E+00  2.22E-06  2.99E-06  2.97E-05  0.67909
    118.  84.746  1.03E-06  1.44E-06  1.02E-06  1.42E-06  0.00E+00  0.00E+00  2.05E-06  2.85E-06  3.38E-05  0.40440
    120.  83.333  1.37E-06  1.97E-06  5.06E-07  7.29E-07  0.00E+00  0.00E+00  1.88E-06  2.70E-06  3.75E-05  0.19753
    122.  81.967  1.60E-06  2.38E-06  1.79E-07  2.67E-07  0.00E+00  0.00E+00  1.78E-06  2.65E-06  4.11E-05  0.06669
    124.  80.645  1.09E-06  1.68E-06  1.15E-06  1.76E-06  0.00E+00  0.00E+00  2.24E-06  3.44E-06  4.56E-05  0.41794
    126.  79.365  1.60E-06  2.54E-06  3.37E-07  5.36E-07  0.00E+00  0.00E+00  1.94E-06  3.07E-06  4.94E-05  0.12157
    128.  78.125  1.45E-06  2.37E-06  6.89E-07  1.13E-06  0.00E+00  0.00E+00  2.14E-06  3.50E-06  5.37E-05  0.23784
    130.  76.923  1.08E-06  1.83E-06  1.39E-06  2.35E-06  0.00E+00  0.00E+00  2.47E-06  4.18E-06  5.87E-05  0.46953
    132.  75.758  1.76E-06  3.06E-06  2.50E-07  4.35E-07  0.00E+00  0.00E+00  2.01E-06  3.50E-06  6.27E-05  0.08324
    134.  74.627  1.43E-06  2.57E-06  9.27E-07  1.66E-06  0.00E+00  0.00E+00  2.36E-06  4.24E-06  6.74E-05  0.29629
    136.  73.529  8.73E-07  1.61E-06  1.93E-06  3.57E-06  0.00E+00  0.00E+00  2.80E-06  5.18E-06  7.30E-05  0.60511
    138.  72.464  1.61E-06  3.06E-06  8.21E-07  1.56E-06  0.00E+00  0.00E+00  2.43E-06  4.63E-06  7.79E-05  0.25323
    140.  71.429  1.99E-06  3.91E-06  1.79E-07  3.50E-07  0.00E+00  0.00E+00  2.17E-06  4.26E-06  8.22E-05  0.05338
    142.  70.423  1.18E-06  2.38E-06  1.64E-06  3.31E-06  0.00E+00  0.00E+00  2.83E-06  5.70E-06  8.79E-05  0.47866
    144.  69.444  6.64E-07  1.38E-06  2.55E-06  5.30E-06  0.00E+00  0.00E+00  3.22E-06  6.67E-06  9.43E-05  0.73048
    146.  68.493  8.40E-07  1.79E-06  2.36E-06  5.04E-06  0.00E+00  0.00E+00  3.20E-06  6.83E-06  1.01E-04  0.66137
    148.  67.568  1.64E-06  3.59E-06  1.12E-06  2.46E-06  0.00E+00  0.00E+00  2.76E-06  6.05E-06  1.06E-04  0.30811
    150.  66.667  2.24E-06  5.03E-06  1.09E-08  2.45E-08  0.00E+00  0.00E+00  2.25E-06  5.06E-06  1.11E-04  0.00294
    152.  65.789  2.29E-06  5.29E-06  1.23E-07  2.85E-07  0.00E+00  0.00E+00  2.41E-06  5.58E-06  1.16E-04  0.03227
    154.  64.935  1.99E-06  4.71E-06  8.23E-07  1.95E-06  0.00E+00  0.00E+00  2.81E-06  6.66E-06  1.21E-04  0.20995
    156.  64.103  1.70E-06  4.14E-06  1.40E-06  3.41E-06  0.00E+00  0.00E+00  3.10E-06  7.55E-06  1.27E-04  0.35352
    158.  63.291  1.98E-06  4.95E-06  9.32E-07  2.33E-06  0.00E+00  0.00E+00  2.91E-06  7.27E-06  1.33E-04  0.22932
    160.  62.500  1.14E-06  2.92E-06  2.45E-06  6.27E-06  0.00E+00  0.00E+00  3.59E-06  9.19E-06  1.40E-04  0.59152
    162.  61.728  9.75E-07  2.56E-06  2.78E-06  7.31E-06  0.00E+00  0.00E+00  3.76E-06  9.87E-06  1.48E-04  0.66026
    164.  60.976  7.03E-07  1.89E-06  3.31E-06  8.90E-06  0.00E+00  0.00E+00  4.01E-06  1.08E-05  1.56E-04  0.77000
    166.  60.241  1.63E-06  4.50E-06  1.88E-06  5.17E-06  0.00E+00  0.00E+00  3.51E-06  9.67E-06  1.63E-04  0.42946
    168.  59.524  1.87E-06  5.27E-06  1.60E-06  4.50E-06  0.00E+00  0.00E+00  3.46E-06  9.77E-06  1.70E-04  0.35752
    170.  58.824  2.57E-06  7.42E-06  2.93E-07  8.46E-07  0.00E+00  0.00E+00  2.86E-06  8.27E-06  1.76E-04  0.06491
    172.  58.140  2.20E-06  6.50E-06  1.20E-06  3.54E-06  0.00E+00  0.00E+00  3.39E-06  1.00E-05  1.82E-04  0.25804
    174.  57.471  2.25E-06  6.82E-06  1.10E-06  3.32E-06  0.00E+00  0.00E+00  3.35E-06  1.01E-05  1.89E-04  0.23186
    176.  56.818  2.33E-06  7.23E-06  1.09E-06  3.38E-06  0.00E+00  0.00E+00  3.43E-06  1.06E-05  1.96E-04  0.22886
    178.  56.180  2.56E-06  8.12E-06  7.05E-07  2.23E-06  0.00E+00  0.00E+00  3.27E-06  1.04E-05  2.02E-04  0.14408
    180.  55.556  1.70E-06  5.50E-06  2.34E-06  7.58E-06  0.00E+00  0.00E+00  4.04E-06  1.31E-05  2.11E-04  0.47211
    182.  54.945  1.78E-06  5.90E-06  2.27E-06  7.53E-06  0.00E+00  0.00E+00  4.06E-06  1.34E-05  2.19E-04  0.45062
    184.  54.348  1.04E-06  3.53E-06  3.57E-06  1.21E-05  0.00E+00  0.00E+00  4.61E-06  1.56E-05  2.28E-04  0.69634
    186.  53.763  9.68E-07  3.35E-06  3.80E-06  1.31E-05  0.00E+00  0.00E+00  4.77E-06  1.65E-05  2.37E-04  0.72968
    188.  53.191  2.29E-06  8.10E-06  1.58E-06  5.57E-06  0.00E+00  0.00E+00  3.87E-06  1.37E-05  2.45E-04  0.29879
    190.  52.632  1.23E-06  4.44E-06  3.54E-06  1.28E-05  0.00E+00  0.00E+00  4.77E-06  1.72E-05  2.55E-04  0.65770
    192.  52.083  1.10E-06  4.05E-06  3.80E-06  1.40E-05  0.00E+00  0.00E+00  4.90E-06  1.81E-05  2.64E-04  0.69800
    194.  51.546  1.99E-06  7.51E-06  2.38E-06  8.96E-06  0.00E+00  0.00E+00  4.38E-06  1.65E-05  2.73E-04  0.42908
    196.  51.020  1.66E-06  6.36E-06  3.06E-06  1.18E-05  0.00E+00  0.00E+00  4.72E-06  1.81E-05  2.83E-04  0.54455
    198.  50.505  1.42E-06  5.57E-06  3.55E-06  1.39E-05  0.00E+00  0.00E+00  4.97E-06  1.95E-05  2.93E-04  0.62122
1                                             RADIANCE(WATTS/CM2-STER-XXX)
0  FREQ   WAVLEN    PATH THERMAL      SURFACE EMISSION    SURFACE REFLECTED     TOTAL RADIANCE   INTEGRAL    TOTAL
  (CM-1) (MICRN)    (CM-1)   (MICRN)    (CM-1)   (MICRN)    (CM-1)   (MICRN)    (CM-1)   (MICRN)    (CM-1)   TRANS

    200.  50.000  2.02E-06  8.08E-06  2.65E-06  1.06E-05  0.00E+00  0.00E+00  4.67E-06  1.87E-05  3.02E-04  0.45755
    202.  49.505  3.12E-06  1.27E-05  3.63E-07  1.48E-06  0.00E+00  0.00E+00  3.48E-06  1.42E-05  3.09E-04  0.06229
    204.  49.020  2.83E-06  1.18E-05  1.25E-06  5.22E-06  0.00E+00  0.00E+00  4.09E-06  1.70E-05  3.17E-04  0.20941
    206.  48.544  1.98E-06  8.39E-06  2.99E-06  1.27E-05  0.00E+00  0.00E+00  4.96E-06  2.11E-05  3.27E-04  0.49460
    208.  48.077  3.22E-06  1.39E-05  6.19E-07  2.68E-06  0.00E+00  0.00E+00  3.84E-06  1.66E-05  3.35E-04  0.10160
    210.  47.619  2.23E-06  9.82E-06  2.68E-06  1.18E-05  0.00E+00  0.00E+00  4.90E-06  2.16E-05  3.44E-04  0.42994
    212.  47.170  1.75E-06  7.85E-06  3.56E-06  1.60E-05  0.00E+00  0.00E+00  5.31E-06  2.39E-05  3.55E-04  0.56655
    214.  46.729  2.72E-06  1.25E-05  1.88E-06  8.62E-06  0.00E+00  0.00E+00  4.60E-06  2.11E-05  3.64E-04  0.29520
    216.  46.296  1.41E-06  6.59E-06  4.27E-06  1.99E-05  0.00E+00  0.00E+00  5.68E-06  2.65E-05  3.76E-04  0.65975
    218.  45.872  8.92E-07  4.24E-06  5.26E-06  2.50E-05  0.00E+00  0.00E+00  6.15E-06  2.92E-05  3.88E-04  0.80412
    220.  45.455  1.64E-06  7.93E-06  4.09E-06  1.98E-05  0.00E+00  0.00E+00  5.73E-06  2.77E-05  3.99E-04  0.61835
    222.  45.045  3.14E-06  1.55E-05  1.38E-06  6.79E-06  0.00E+00  0.00E+00  4.51E-06  2.22E-05  4.08E-04  0.20479
    224.  44.643  2.63E-06  1.32E-05  2.48E-06  1.25E-05  0.00E+00  0.00E+00  5.12E-06  2.57E-05  4.19E-04  0.36532
    226.  44.248  3.30E-06  1.68E-05  1.20E-06  6.11E-06  0.00E+00  0.00E+00  4.49E-06  2.30E-05  4.28E-04  0.17472
    228.  43.860  3.50E-06  1.82E-05  8.25E-07  4.29E-06  0.00E+00  0.00E+00  4.32E-06  2.25E-05  4.36E-04  0.11800
    230.  43.478  1.91E-06  1.01E-05  4.05E-06  2.14E-05  0.00E+00  0.00E+00  5.96E-06  3.15E-05  4.48E-04  0.57474
    232.  43.103  1.76E-06  9.49E-06  4.34E-06  2.34E-05  0.00E+00  0.00E+00  6.11E-06  3.29E-05  4.60E-04  0.60969
    234.  42.735  1.10E-06  6.00E-06  5.58E-06  3.05E-05  0.00E+00  0.00E+00  6.67E-06  3.65E-05  4.74E-04  0.77359
    236.  42.373  7.78E-07  4.33E-06  6.21E-06  3.46E-05  0.00E+00  0.00E+00  6.99E-06  3.89E-05  4.88E-04  0.85164
    238.  42.017  7.39E-07  4.19E-06  6.36E-06  3.60E-05  0.00E+00  0.00E+00  7.09E-06  4.02E-05  5.02E-04  0.86226
    240.  41.667  7.55E-07  4.35E-06  6.41E-06  3.69E-05  0.00E+00  0.00E+00  7.17E-06  4.13E-05  5.16E-04  0.86036
    242.  41.322  8.84E-07  5.18E-06  6.28E-06  3.68E-05  0.00E+00  0.00E+00  7.16E-06  4.19E-05  5.31E-04  0.83339
    244.  40.984  2.40E-06  1.43E-05  3.61E-06  2.15E-05  0.00E+00  0.00E+00  6.01E-06  3.58E-05  5.43E-04  0.47465
    246.  40.650  3.80E-06  2.30E-05  1.07E-06  6.48E-06  0.00E+00  0.00E+00  4.87E-06  2.95E-05  5.52E-04  0.13905
    248.  40.323  3.61E-06  2.22E-05  1.45E-06  8.93E-06  0.00E+00  0.00E+00  5.06E-06  3.11E-05  5.63E-04  0.18622
    250.  40.000  1.92E-06  1.20E-05  4.83E-06  3.02E-05  0.00E+00  0.00E+00  6.74E-06  4.21E-05  5.76E-04  0.61386
    252.  39.683  2.62E-06  1.66E-05  3.64E-06  2.31E-05  0.00E+00  0.00E+00  6.26E-06  3.97E-05  5.89E-04  0.45900
    254.  39.370  3.80E-06  2.45E-05  1.04E-06  6.70E-06  0.00E+00  0.00E+00  4.84E-06  3.12E-05  5.98E-04  0.12899
    256.  39.063  2.02E-06  1.32E-05  4.88E-06  3.20E-05  0.00E+00  0.00E+00  6.90E-06  4.52E-05  6.12E-04  0.60202
    258.  38.760  9.97E-07  6.64E-06  6.74E-06  4.49E-05  0.00E+00  0.00E+00  7.74E-06  5.15E-05  6.27E-04  0.82384
    260.  38.462  7.84E-07  5.30E-06  7.19E-06  4.86E-05  0.00E+00  0.00E+00  7.97E-06  5.39E-05  6.43E-04  0.87009
    262.  38.168  8.88E-07  6.10E-06  7.08E-06  4.86E-05  0.00E+00  0.00E+00  7.97E-06  5.47E-05  6.59E-04  0.84911
    264.  37.879  9.88E-07  6.89E-06  6.99E-06  4.87E-05  0.00E+00  0.00E+00  7.97E-06  5.56E-05  6.75E-04  0.83002
    266.  37.594  2.29E-06  1.62E-05  4.63E-06  3.28E-05  0.00E+00  0.00E+00  6.92E-06  4.90E-05  6.89E-04  0.54544
    268.  37.313  1.18E-06  8.44E-06  6.83E-06  4.90E-05  0.00E+00  0.00E+00  8.00E-06  5.75E-05  7.05E-04  0.79598
    270.  37.037  7.51E-07  5.47E-06  7.64E-06  5.57E-05  0.00E+00  0.00E+00  8.39E-06  6.12E-05  7.22E-04  0.88351
    272.  36.765  9.35E-07  6.92E-06  7.40E-06  5.47E-05  0.00E+00  0.00E+00  8.33E-06  6.17E-05  7.39E-04  0.84767
    274.  36.496  1.05E-06  7.90E-06  7.27E-06  5.46E-05  0.00E+00  0.00E+00  8.32E-06  6.25E-05  7.55E-04  0.82552
    276.  36.232  2.80E-06  2.13E-05  4.05E-06  3.09E-05  0.00E+00  0.00E+00  6.85E-06  5.22E-05  7.69E-04  0.45632
    278.  35.971  3.99E-06  3.09E-05  1.67E-06  1.29E-05  0.00E+00  0.00E+00  5.66E-06  4.38E-05  7.80E-04  0.18689
    280.  35.714  3.74E-06  2.93E-05  2.38E-06  1.87E-05  0.00E+00  0.00E+00  6.12E-06  4.80E-05  7.92E-04  0.26290
    282.  35.461  3.72E-06  2.96E-05  2.38E-06  1.89E-05  0.00E+00  0.00E+00  6.09E-06  4.85E-05  8.05E-04  0.26081
    284.  35.211  1.68E-06  1.36E-05  6.54E-06  5.27E-05  0.00E+00  0.00E+00  8.22E-06  6.63E-05  8.21E-04  0.71088
    286.  34.965  1.06E-06  8.63E-06  7.73E-06  6.32E-05  0.00E+00  0.00E+00  8.78E-06  7.18E-05  8.39E-04  0.83416
    288.  34.722  1.91E-06  1.59E-05  6.10E-06  5.06E-05  0.00E+00  0.00E+00  8.02E-06  6.65E-05  8.55E-04  0.65424
    290.  34.483  2.90E-06  2.44E-05  4.38E-06  3.68E-05  0.00E+00  0.00E+00  7.28E-06  6.12E-05  8.69E-04  0.46465
    292.  34.247  1.12E-06  9.59E-06  7.81E-06  6.66E-05  0.00E+00  0.00E+00  8.93E-06  7.62E-05  8.87E-04  0.82273
    294.  34.014  7.47E-07  6.45E-06  8.58E-06  7.42E-05  0.00E+00  0.00E+00  9.33E-06  8.06E-05  9.06E-04  0.89749
    296.  33.784  8.77E-07  7.69E-06  8.42E-06  7.37E-05  0.00E+00  0.00E+00  9.29E-06  8.14E-05  9.24E-04  0.87347
    298.  33.557  1.33E-06  1.18E-05  7.64E-06  6.79E-05  0.00E+00  0.00E+00  8.98E-06  7.97E-05  9.42E-04  0.78739
1                                             RADIANCE(WATTS/CM2-STER-XXX)
0  FREQ   WAVLEN    PATH THERMAL      SURFACE EMISSION    SURFACE REFLECTED     TOTAL RADIANCE   INTEGRAL    TOTAL
  (CM-1) (MICRN)    (CM-1)   (MICRN)    (CM-1)   (MICRN)    (CM-1)   (MICRN)    (CM-1)   (MICRN)    (CM-1)   TRANS

    300.  33.333  1.43E-06  1.29E-05  7.57E-06  6.81E-05  0.00E+00  0.00E+00  9.00E-06  8.10E-05  9.60E-04  0.77373
    302.  33.113  3.78E-06  3.45E-05  2.85E-06  2.60E-05  0.00E+00  0.00E+00  6.63E-06  6.05E-05  9.74E-04  0.28965
    304.  32.895  2.96E-06  2.73E-05  4.64E-06  4.29E-05  0.00E+00  0.00E+00  7.60E-06  7.02E-05  9.89E-04  0.46665
    306.  32.680  1.06E-06  9.89E-06  8.47E-06  7.93E-05  0.00E+00  0.00E+00  9.52E-06  8.92E-05  1.01E-03  0.84668
    308.  32.468  8.97E-07  8.51E-06  8.82E-06  8.36E-05  0.00E+00  0.00E+00  9.71E-06  9.21E-05  1.03E-03  0.87567
    310.  32.258  8.67E-07  8.33E-06  8.94E-06  8.59E-05  0.00E+00  0.00E+00  9.81E-06  9.43E-05  1.05E-03  0.88193
    312.  32.051  8.02E-07  7.81E-06  9.14E-06  8.90E-05  0.00E+00  0.00E+00  9.95E-06  9.68E-05  1.07E-03  0.89569
    314.  31.847  1.52E-06  1.50E-05  7.79E-06  7.68E-05  0.00E+00  0.00E+00  9.31E-06  9.17E-05  1.09E-03  0.75813
    316.  31.646  1.59E-06  1.59E-05  7.72E-06  7.71E-05  0.00E+00  0.00E+00  9.32E-06  9.30E-05  1.10E-03  0.74574
    318.  31.447  7.19E-07  7.27E-06  9.51E-06  9.62E-05  0.00E+00  0.00E+00  1.02E-05  1.03E-04  1.12E-03  0.91295
    320.  31.250  8.05E-07  8.24E-06  9.42E-06  9.65E-05  0.00E+00  0.00E+00  1.02E-05  1.05E-04  1.14E-03  0.89851
    322.  31.056  1.40E-06  1.45E-05  8.38E-06  8.69E-05  0.00E+00  0.00E+00  9.78E-06  1.01E-04  1.16E-03  0.79421
    324.  30.864  3.30E-06  3.46E-05  4.39E-06  4.61E-05  0.00E+00  0.00E+00  7.69E-06  8.07E-05  1.18E-03  0.41313
    326.  30.675  1.41E-06  1.50E-05  8.50E-06  9.03E-05  0.00E+00  0.00E+00  9.91E-06  1.05E-04  1.20E-03  0.79528
    328.  30.488  3.18E-06  3.42E-05  4.79E-06  5.15E-05  0.00E+00  0.00E+00  7.97E-06  8.57E-05  1.22E-03  0.44531
    330.  30.303  9.36E-07  1.02E-05  9.53E-06  1.04E-04  0.00E+00  0.00E+00  1.05E-05  1.14E-04  1.24E-03  0.88017
    332.  30.120  7.63E-07  8.41E-06  9.91E-06  1.09E-04  0.00E+00  0.00E+00  1.07E-05  1.18E-04  1.26E-03  0.91058
    334.  29.940  1.79E-06  2.00E-05  7.83E-06  8.73E-05  0.00E+00  0.00E+00  9.62E-06  1.07E-04  1.28E-03  0.71532
    336.  29.762  2.29E-06  2.58E-05  6.95E-06  7.85E-05  0.00E+00  0.00E+00  9.24E-06  1.04E-04  1.30E-03  0.63070
    338.  29.586  7.61E-07  8.69E-06  1.01E-05  1.16E-04  0.00E+00  0.00E+00  1.09E-05  1.24E-04  1.32E-03  0.91334
    340.  29.412  1.40E-06  1.62E-05  8.90E-06  1.03E-04  0.00E+00  0.00E+00  1.03E-05  1.19E-04  1.34E-03  0.79850
    342.  29.240  1.59E-06  1.86E-05  8.58E-06  1.00E-04  0.00E+00  0.00E+00  1.02E-05  1.19E-04  1.36E-03  0.76540
    344.  29.070  1.06E-06  1.25E-05  9.73E-06  1.15E-04  0.00E+00  0.00E+00  1.08E-05  1.28E-04  1.38E-03  0.86317
    346.  28.902  1.05E-06  1.26E-05  9.80E-06  1.17E-04  0.00E+00  0.00E+00  1.09E-05  1.30E-04  1.40E-03  0.86494
    348.  28.736  9.50E-07  1.15E-05  1.01E-05  1.22E-04  0.00E+00  0.00E+00  1.10E-05  1.34E-04  1.42E-03  0.88585
    350.  28.571  2.30E-06  2.82E-05  7.36E-06  9.02E-05  0.00E+00  0.00E+00  9.66E-06  1.18E-04  1.44E-03  0.64268
    352.  28.409  2.53E-06  3.14E-05  6.91E-06  8.56E-05  0.00E+00  0.00E+00  9.44E-06  1.17E-04  1.46E-03  0.59944
    354.  28.249  2.49E-06  3.12E-05  7.10E-06  8.90E-05  0.00E+00  0.00E+00  9.59E-06  1.20E-04  1.48E-03  0.61325
    356.  28.090  2.01E-06  2.55E-05  8.10E-06  1.03E-04  0.00E+00  0.00E+00  1.01E-05  1.28E-04  1.50E-03  0.69620
    358.  27.933  2.17E-06  2.78E-05  7.87E-06  1.01E-04  0.00E+00  0.00E+00  1.00E-05  1.29E-04  1.52E-03  0.67233
    360.  27.778  7.61E-07  9.86E-06  1.08E-05  1.40E-04  0.00E+00  0.00E+00  1.16E-05  1.50E-04  1.54E-03  0.92179
    362.  27.624  7.49E-07  9.81E-06  1.09E-05  1.43E-04  0.00E+00  0.00E+00  1.17E-05  1.53E-04  1.57E-03  0.92432
    364.  27.473  7.36E-07  9.75E-06  1.10E-05  1.46E-04  0.00E+00  0.00E+00  1.17E-05  1.56E-04  1.59E-03  0.92715
    366.  27.322  7.01E-07  9.39E-06  1.11E-05  1.49E-04  0.00E+00  0.00E+00  1.18E-05  1.59E-04  1.62E-03  0.93371
    368.  27.174  8.50E-07  1.15E-05  1.09E-05  1.48E-04  0.00E+00  0.00E+00  1.18E-05  1.59E-04  1.64E-03  0.90983
    370.  27.027  1.86E-06  2.54E-05  8.80E-06  1.20E-04  0.00E+00  0.00E+00  1.07E-05  1.46E-04  1.66E-03  0.73046
    372.  26.882  7.75E-07  1.07E-05  1.12E-05  1.55E-04  0.00E+00  0.00E+00  1.20E-05  1.65E-04  1.68E-03  0.92354
    374.  26.738  2.10E-06  2.94E-05  8.44E-06  1.18E-04  0.00E+00  0.00E+00  1.05E-05  1.47E-04  1.70E-03  0.69422
    376.  26.596  2.08E-06  2.94E-05  8.55E-06  1.21E-04  0.00E+00  0.00E+00  1.06E-05  1.50E-04  1.73E-03  0.70027
    378.  26.455  8.29E-07  1.18E-05  1.12E-05  1.61E-04  0.00E+00  0.00E+00  1.21E-05  1.72E-04  1.75E-03  0.91665
    380.  26.316  7.91E-07  1.14E-05  1.14E-05  1.64E-04  0.00E+00  0.00E+00  1.22E-05  1.76E-04  1.77E-03  0.92327
    382.  26.178  7.48E-07  1.09E-05  1.15E-05  1.68E-04  0.00E+00  0.00E+00  1.23E-05  1.79E-04  1.80E-03  0.93115
    384.  26.042  1.60E-06  2.36E-05  9.77E-06  1.44E-04  0.00E+00  0.00E+00  1.14E-05  1.68E-04  1.82E-03  0.78668
    386.  25.907  1.89E-06  2.82E-05  9.13E-06  1.36E-04  0.00E+00  0.00E+00  1.10E-05  1.64E-04  1.84E-03  0.73147
    388.  25.773  7.39E-07  1.11E-05  1.17E-05  1.76E-04  0.00E+00  0.00E+00  1.24E-05  1.87E-04  1.87E-03  0.93444
    390.  25.641  7.37E-07  1.12E-05  1.18E-05  1.79E-04  0.00E+00  0.00E+00  1.25E-05  1.90E-04  1.89E-03  0.93544
    392.  25.510  7.38E-07  1.13E-05  1.18E-05  1.82E-04  0.00E+00  0.00E+00  1.26E-05  1.93E-04  1.92E-03  0.93584
    394.  25.381  1.36E-06  2.11E-05  1.05E-05  1.64E-04  0.00E+00  0.00E+00  1.19E-05  1.85E-04  1.94E-03  0.83122
    396.  25.253  2.14E-06  3.35E-05  8.85E-06  1.39E-04  0.00E+00  0.00E+00  1.10E-05  1.72E-04  1.96E-03  0.69558
    398.  25.126  2.28E-06  3.61E-05  8.67E-06  1.37E-04  0.00E+00  0.00E+00  1.09E-05  1.73E-04  1.99E-03  0.67830
1                                             RADIANCE(WATTS/CM2-STER-XXX)
0  FREQ   WAVLEN    PATH THERMAL      SURFACE EMISSION    SURFACE REFLECTED     TOTAL RADIANCE   INTEGRAL    TOTAL
  (CM-1) (MICRN)    (CM-1)   (MICRN)    (CM-1)   (MICRN)    (CM-1)   (MICRN)    (CM-1)   (MICRN)    (CM-1)   TRANS

    400.  25.000  1.71E-06  2.73E-05  9.96E-06  1.59E-04  0.00E+00  0.00E+00  1.17E-05  1.87E-04  2.01E-03  0.77646
    402.  24.876  7.60E-07  1.23E-05  1.20E-05  1.95E-04  0.00E+00  0.00E+00  1.28E-05  2.07E-04  2.04E-03  0.93527
    404.  24.752  7.67E-07  1.25E-05  1.21E-05  1.97E-04  0.00E+00  0.00E+00  1.28E-05  2.10E-04  2.06E-03  0.93488
    406.  24.631  7.70E-07  1.27E-05  1.21E-05  2.00E-04  0.00E+00  0.00E+00  1.29E-05  2.13E-04  2.09E-03  0.93507
    408.  24.510  7.54E-07  1.26E-05  1.22E-05  2.03E-04  0.00E+00  0.00E+00  1.30E-05  2.16E-04  2.11E-03  0.93836
    410.  24.390  7.60E-07  1.28E-05  1.23E-05  2.06E-04  0.00E+00  0.00E+00  1.30E-05  2.19E-04  2.14E-03  0.93817
    412.  24.272  7.66E-07  1.30E-05  1.23E-05  2.09E-04  0.00E+00  0.00E+00  1.31E-05  2.22E-04  2.17E-03  0.93779
    414.  24.155  7.93E-07  1.36E-05  1.23E-05  2.11E-04  0.00E+00  0.00E+00  1.31E-05  2.24E-04  2.19E-03  0.93428
    416.  24.038  8.46E-07  1.46E-05  1.22E-05  2.12E-04  0.00E+00  0.00E+00  1.31E-05  2.26E-04  2.22E-03  0.92645
    418.  23.923  2.41E-06  4.21E-05  8.69E-06  1.52E-04  0.00E+00  0.00E+00  1.11E-05  1.94E-04  2.24E-03  0.65677
    420.  23.810  2.16E-06  3.82E-05  9.29E-06  1.64E-04  0.00E+00  0.00E+00  1.15E-05  2.02E-04  2.26E-03  0.69967
    422.  23.697  1.06E-06  1.89E-05  1.19E-05  2.12E-04  0.00E+00  0.00E+00  1.30E-05  2.31E-04  2.29E-03  0.89288
    424.  23.585  1.14E-06  2.04E-05  1.18E-05  2.12E-04  0.00E+00  0.00E+00  1.29E-05  2.32E-04  2.31E-03  0.88174
    426.  23.474  1.11E-06  2.02E-05  1.19E-05  2.15E-04  0.00E+00  0.00E+00  1.30E-05  2.36E-04  2.34E-03  0.88533
    428.  23.364  8.19E-07  1.50E-05  1.26E-05  2.30E-04  0.00E+00  0.00E+00  1.34E-05  2.45E-04  2.37E-03  0.93475
    430.  23.256  1.02E-06  1.89E-05  1.21E-05  2.25E-04  0.00E+00  0.00E+00  1.32E-05  2.43E-04  2.39E-03  0.90052
    432.  23.148  1.04E-06  1.94E-05  1.22E-05  2.27E-04  0.00E+00  0.00E+00  1.32E-05  2.46E-04  2.42E-03  0.89822
    434.  23.041  8.57E-07  1.61E-05  1.26E-05  2.38E-04  0.00E+00  0.00E+00  1.35E-05  2.54E-04  2.45E-03  0.93067
    436.  22.936  1.05E-06  1.99E-05  1.22E-05  2.33E-04  0.00E+00  0.00E+00  1.33E-05  2.53E-04  2.47E-03  0.90022
    438.  22.831  8.40E-07  1.61E-05  1.28E-05  2.45E-04  0.00E+00  0.00E+00  1.36E-05  2.61E-04  2.50E-03  0.93457
    440.  22.727  8.58E-07  1.66E-05  1.28E-05  2.47E-04  0.00E+00  0.00E+00  1.36E-05  2.64E-04  2.53E-03  0.93229
    442.  22.624  1.73E-06  3.39E-05  1.07E-05  2.09E-04  0.00E+00  0.00E+00  1.24E-05  2.43E-04  2.55E-03  0.78078
    444.  22.523  1.07E-06  2.10E-05  1.24E-05  2.44E-04  0.00E+00  0.00E+00  1.34E-05  2.65E-04  2.58E-03  0.89966
    446.  22.422  9.66E-07  1.92E-05  1.26E-05  2.51E-04  0.00E+00  0.00E+00  1.36E-05  2.71E-04  2.61E-03  0.91682
    448.  22.321  9.19E-07  1.84E-05  1.28E-05  2.57E-04  0.00E+00  0.00E+00  1.37E-05  2.75E-04  2.63E-03  0.92499
    450.  22.222  8.68E-07  1.76E-05  1.29E-05  2.62E-04  0.00E+00  0.00E+00  1.38E-05  2.80E-04  2.66E-03  0.93365
    452.  22.124  1.02E-06  2.08E-05  1.26E-05  2.58E-04  0.00E+00  0.00E+00  1.37E-05  2.79E-04  2.69E-03  0.91021
    454.  22.026  1.00E-06  2.06E-05  1.27E-05  2.62E-04  0.00E+00  0.00E+00  1.37E-05  2.83E-04  2.72E-03  0.91323
    456.  21.930  1.15E-06  2.39E-05  1.24E-05  2.58E-04  0.00E+00  0.00E+00  1.36E-05  2.82E-04  2.74E-03  0.88873
    458.  21.834  2.24E-06  4.70E-05  9.72E-06  2.04E-04  0.00E+00  0.00E+00  1.20E-05  2.51E-04  2.77E-03  0.69488
    460.  21.739  9.52E-07  2.01E-05  1.29E-05  2.74E-04  0.00E+00  0.00E+00  1.39E-05  2.94E-04  2.80E-03  0.92331
    462.  21.645  9.38E-07  2.00E-05  1.30E-05  2.78E-04  0.00E+00  0.00E+00  1.40E-05  2.98E-04  2.82E-03  0.92593
    464.  21.552  8.98E-07  1.93E-05  1.31E-05  2.83E-04  0.00E+00  0.00E+00  1.40E-05  3.02E-04  2.85E-03  0.93299
    466.  21.459  9.14E-07  1.99E-05  1.31E-05  2.85E-04  0.00E+00  0.00E+00  1.41E-05  3.05E-04  2.88E-03  0.93084
    468.  21.368  1.02E-06  2.23E-05  1.29E-05  2.83E-04  0.00E+00  0.00E+00  1.40E-05  3.06E-04  2.91E-03  0.91477
    470.  21.277  9.46E-07  2.09E-05  1.31E-05  2.90E-04  0.00E+00  0.00E+00  1.41E-05  3.11E-04  2.94E-03  0.92685
    472.  21.186  1.82E-06  4.06E-05  1.10E-05  2.45E-04  0.00E+00  0.00E+00  1.28E-05  2.86E-04  2.96E-03  0.77407
    474.  21.097  1.23E-06  2.77E-05  1.25E-05  2.80E-04  0.00E+00  0.00E+00  1.37E-05  3.08E-04  2.99E-03  0.87695
    476.  21.008  9.50E-07  2.15E-05  1.32E-05  2.99E-04  0.00E+00  0.00E+00  1.42E-05  3.21E-04  3.02E-03  0.92656
    478.  20.921  9.10E-07  2.08E-05  1.33E-05  3.05E-04  0.00E+00  0.00E+00  1.42E-05  3.25E-04  3.05E-03  0.93305
    480.  20.833  9.20E-07  2.12E-05  1.33E-05  3.07E-04  0.00E+00  0.00E+00  1.43E-05  3.28E-04  3.07E-03  0.93168
    482.  20.747  9.37E-07  2.18E-05  1.33E-05  3.10E-04  0.00E+00  0.00E+00  1.43E-05  3.31E-04  3.10E-03  0.92909
    484.  20.661  1.44E-06  3.36E-05  1.21E-05  2.83E-04  0.00E+00  0.00E+00  1.35E-05  3.16E-04  3.13E-03  0.84026
    486.  20.576  9.50E-07  2.24E-05  1.33E-05  3.15E-04  0.00E+00  0.00E+00  1.43E-05  3.38E-04  3.16E-03  0.92730
    488.  20.492  9.07E-07  2.16E-05  1.35E-05  3.21E-04  0.00E+00  0.00E+00  1.44E-05  3.42E-04  3.19E-03  0.93438
    490.  20.408  9.09E-07  2.18E-05  1.35E-05  3.24E-04  0.00E+00  0.00E+00  1.44E-05  3.46E-04  3.22E-03  0.93423
    492.  20.325  1.16E-06  2.82E-05  1.29E-05  3.12E-04  0.00E+00  0.00E+00  1.41E-05  3.40E-04  3.24E-03  0.89126
    494.  20.243  9.15E-07  2.23E-05  1.35E-05  3.30E-04  0.00E+00  0.00E+00  1.44E-05  3.52E-04  3.27E-03  0.93352
    496.  20.161  9.04E-07  2.22E-05  1.36E-05  3.34E-04  0.00E+00  0.00E+00  1.45E-05  3.56E-04  3.30E-03  0.93537
    498.  20.080  9.04E-07  2.24E-05  1.36E-05  3.37E-04  0.00E+00  0.00E+00  1.45E-05  3.59E-04  3.33E-03  0.93548
1                                             RADIANCE(WATTS/CM2-STER-XXX)
0  FREQ   WAVLEN    PATH THERMAL      SURFACE EMISSION    SURFACE REFLECTED     TOTAL RADIANCE   INTEGRAL    TOTAL
  (CM-1) (MICRN)    (CM-1)   (MICRN)    (CM-1)   (MICRN)    (CM-1)   (MICRN)    (CM-1)   (MICRN)    (CM-1)   TRANS

    500.  20.000  9.12E-07  2.28E-05  1.36E-05  3.40E-04  0.00E+00  0.00E+00  1.45E-05  3.63E-04  3.36E-03  0.93424
    502.  19.920  1.30E-06  3.27E-05  1.26E-05  3.18E-04  0.00E+00  0.00E+00  1.39E-05  3.51E-04  3.39E-03  0.86660
    504.  19.841  9.29E-07  2.36E-05  1.36E-05  3.45E-04  0.00E+00  0.00E+00  1.45E-05  3.69E-04  3.42E-03  0.93174
    506.  19.763  1.14E-06  2.93E-05  1.31E-05  3.34E-04  0.00E+00  0.00E+00  1.42E-05  3.63E-04  3.44E-03  0.89345
    508.  19.685  1.15E-06  2.97E-05  1.31E-05  3.38E-04  0.00E+00  0.00E+00  1.42E-05  3.67E-04  3.47E-03  0.89455
    510.  19.608  9.42E-07  2.45E-05  1.36E-05  3.55E-04  0.00E+00  0.00E+00  1.46E-05  3.79E-04  3.50E-03  0.93120
    512.  19.531  9.40E-07  2.47E-05  1.37E-05  3.58E-04  0.00E+00  0.00E+00  1.46E-05  3.83E-04  3.53E-03  0.93105
    514.  19.455  9.28E-07  2.45E-05  1.37E-05  3.62E-04  0.00E+00  0.00E+00  1.46E-05  3.87E-04  3.56E-03  0.93373
    516.  19.380  1.07E-06  2.84E-05  1.34E-05  3.56E-04  0.00E+00  0.00E+00  1.44E-05  3.84E-04  3.59E-03  0.90943
    518.  19.305  1.29E-06  3.45E-05  1.28E-05  3.44E-04  0.00E+00  0.00E+00  1.41E-05  3.79E-04  3.62E-03  0.87221
    520.  19.231  1.20E-06  3.25E-05  1.31E-05  3.54E-04  0.00E+00  0.00E+00  1.43E-05  3.87E-04  3.65E-03  0.88894
    522.  19.157  9.49E-07  2.58E-05  1.38E-05  3.75E-04  0.00E+00  0.00E+00  1.47E-05  4.01E-04  3.68E-03  0.93264
    524.  19.084  9.90E-07  2.72E-05  1.37E-05  3.76E-04  0.00E+00  0.00E+00  1.47E-05  4.04E-04  3.71E-03  0.92838
    526.  19.011  1.35E-06  3.73E-05  1.28E-05  3.53E-04  0.00E+00  0.00E+00  1.41E-05  3.91E-04  3.73E-03  0.86453
    528.  18.939  9.85E-07  2.75E-05  1.38E-05  3.83E-04  0.00E+00  0.00E+00  1.47E-05  4.11E-04  3.76E-03  0.92964
    530.  18.868  1.02E-06  2.85E-05  1.37E-05  3.86E-04  0.00E+00  0.00E+00  1.47E-05  4.14E-04  3.79E-03  0.92738
    532.  18.797  1.01E-06  2.87E-05  1.37E-05  3.89E-04  0.00E+00  0.00E+00  1.48E-05  4.18E-04  3.82E-03  0.92754
    534.  18.727  9.83E-07  2.80E-05  1.38E-05  3.93E-04  0.00E+00  0.00E+00  1.48E-05  4.21E-04  3.85E-03  0.93003
    536.  18.657  1.13E-06  3.25E-05  1.34E-05  3.86E-04  0.00E+00  0.00E+00  1.45E-05  4.18E-04  3.88E-03  0.90398
    538.  18.587  9.94E-07  2.88E-05  1.38E-05  4.00E-04  0.00E+00  0.00E+00  1.48E-05  4.28E-04  3.91E-03  0.92916
    540.  18.519  9.92E-07  2.89E-05  1.38E-05  4.02E-04  0.00E+00  0.00E+00  1.48E-05  4.31E-04  3.94E-03  0.92664
    542.  18.450  9.88E-07  2.90E-05  1.38E-05  4.05E-04  0.00E+00  0.00E+00  1.48E-05  4.34E-04  3.97E-03  0.92711
    544.  18.382  2.13E-06  6.31E-05  1.23E-05  3.65E-04  0.00E+00  0.00E+00  1.45E-05  4.28E-04  4.00E-03  0.82751
    546.  18.315  2.21E-06  6.60E-05  1.20E-05  3.58E-04  0.00E+00  0.00E+00  1.42E-05  4.24E-04  4.03E-03  0.80563
    548.  18.248  1.20E-06  3.62E-05  1.35E-05  4.06E-04  0.00E+00  0.00E+00  1.47E-05  4.43E-04  4.06E-03  0.90802
    550.  18.182  1.21E-06  3.67E-05  1.35E-05  4.08E-04  0.00E+00  0.00E+00  1.47E-05  4.45E-04  4.09E-03  0.90440
    552.  18.116  1.16E-06  3.54E-05  1.37E-05  4.17E-04  0.00E+00  0.00E+00  1.48E-05  4.52E-04  4.12E-03  0.91607
    554.  18.051  1.24E-06  3.81E-05  1.35E-05  4.15E-04  0.00E+00  0.00E+00  1.48E-05  4.53E-04  4.14E-03  0.90559
    556.  17.986  1.40E-06  4.34E-05  1.33E-05  4.12E-04  0.00E+00  0.00E+00  1.47E-05  4.55E-04  4.17E-03  0.89172
    558.  17.921  1.43E-06  4.44E-05  1.34E-05  4.16E-04  0.00E+00  0.00E+00  1.48E-05  4.61E-04  4.20E-03  0.89427
    560.  17.857  1.54E-06  4.82E-05  1.32E-05  4.15E-04  0.00E+00  0.00E+00  1.48E-05  4.63E-04  4.23E-03  0.88406
    562.  17.794  1.64E-06  5.17E-05  1.30E-05  4.12E-04  0.00E+00  0.00E+00  1.47E-05  4.64E-04  4.26E-03  0.87170
    564.  17.730  1.91E-06  6.08E-05  1.27E-05  4.03E-04  0.00E+00  0.00E+00  1.46E-05  4.64E-04  4.29E-03  0.84707
    566.  17.668  2.13E-06  6.83E-05  1.23E-05  3.95E-04  0.00E+00  0.00E+00  1.44E-05  4.63E-04  4.32E-03  0.82301
    568.  17.606  2.38E-06  7.68E-05  1.19E-05  3.83E-04  0.00E+00  0.00E+00  1.43E-05  4.60E-04  4.35E-03  0.79329
    570.  17.544  2.77E-06  9.00E-05  1.15E-05  3.72E-04  0.00E+00  0.00E+00  1.42E-05  4.62E-04  4.38E-03  0.76453
    572.  17.483  2.83E-06  9.26E-05  1.15E-05  3.78E-04  0.00E+00  0.00E+00  1.44E-05  4.70E-04  4.41E-03  0.77040
    574.  17.422  3.29E-06  1.08E-04  1.09E-05  3.60E-04  0.00E+00  0.00E+00  1.42E-05  4.68E-04  4.44E-03  0.72947
    576.  17.361  3.91E-06  1.30E-04  9.83E-06  3.26E-04  0.00E+00  0.00E+00  1.37E-05  4.56E-04  4.46E-03  0.65607
    578.  17.301  4.53E-06  1.51E-04  9.26E-06  3.09E-04  0.00E+00  0.00E+00  1.38E-05  4.61E-04  4.49E-03  0.61805
    580.  17.241  4.95E-06  1.67E-04  8.53E-06  2.87E-04  0.00E+00  0.00E+00  1.35E-05  4.53E-04  4.52E-03  0.56876
    582.  17.182  5.51E-06  1.87E-04  7.90E-06  2.68E-04  0.00E+00  0.00E+00  1.34E-05  4.54E-04  4.54E-03  0.52676
    584.  17.123  5.69E-06  1.94E-04  7.55E-06  2.57E-04  0.00E+00  0.00E+00  1.32E-05  4.52E-04  4.57E-03  0.50330
    586.  17.065  6.53E-06  2.24E-04  6.19E-06  2.12E-04  0.00E+00  0.00E+00  1.27E-05  4.37E-04  4.60E-03  0.41251
    588.  17.007  6.17E-06  2.13E-04  5.65E-06  1.95E-04  0.00E+00  0.00E+00  1.18E-05  4.08E-04  4.62E-03  0.37663
    590.  16.949  7.09E-06  2.47E-04  3.39E-06  1.18E-04  0.00E+00  0.00E+00  1.05E-05  3.65E-04  4.64E-03  0.22606
    592.  16.892  6.80E-06  2.38E-04  5.17E-06  1.81E-04  0.00E+00  0.00E+00  1.20E-05  4.19E-04  4.66E-03  0.34462
    594.  16.835  7.89E-06  2.78E-04  3.12E-06  1.10E-04  0.00E+00  0.00E+00  1.10E-05  3.88E-04  4.69E-03  0.20785
    596.  16.779  8.36E-06  2.97E-04  1.73E-06  6.13E-05  0.00E+00  0.00E+00  1.01E-05  3.58E-04  4.71E-03  0.11516
    598.  16.722  7.83E-06  2.80E-04  2.10E-06  7.51E-05  0.00E+00  0.00E+00  9.93E-06  3.55E-04  4.73E-03  0.14018
1                                             RADIANCE(WATTS/CM2-STER-XXX)
0  FREQ   WAVLEN    PATH THERMAL      SURFACE EMISSION    SURFACE REFLECTED     TOTAL RADIANCE   INTEGRAL    TOTAL
  (CM-1) (MICRN)    (CM-1)   (MICRN)    (CM-1)   (MICRN)    (CM-1)   (MICRN)    (CM-1)   (MICRN)    (CM-1)   TRANS

    600.  16.667  7.67E-06  2.76E-04  3.43E-06  1.24E-04  0.00E+00  0.00E+00  1.11E-05  4.00E-04  4.75E-03  0.22903
    602.  16.611  7.63E-06  2.77E-04  2.72E-06  9.87E-05  0.00E+00  0.00E+00  1.04E-05  3.75E-04  4.77E-03  0.18177
    604.  16.556  8.26E-06  3.01E-04  2.34E-06  8.52E-05  0.00E+00  0.00E+00  1.06E-05  3.87E-04  4.79E-03  0.15592
    606.  16.502  8.07E-06  2.96E-04  1.38E-06  5.09E-05  0.00E+00  0.00E+00  9.46E-06  3.47E-04  4.81E-03  0.09247
    608.  16.447  8.07E-06  2.98E-04  1.41E-06  5.20E-05  0.00E+00  0.00E+00  9.48E-06  3.50E-04  4.83E-03  0.09389
    610.  16.393  8.36E-06  3.11E-04  1.80E-06  6.71E-05  0.00E+00  0.00E+00  1.02E-05  3.78E-04  4.85E-03  0.12048
    612.  16.340  8.01E-06  3.00E-04  2.33E-06  8.73E-05  0.00E+00  0.00E+00  1.03E-05  3.87E-04  4.87E-03  0.15576
    614.  16.287  8.35E-06  3.15E-04  9.52E-07  3.59E-05  0.00E+00  0.00E+00  9.30E-06  3.51E-04  4.89E-03  0.06367
    616.  16.234  6.84E-06  2.60E-04  2.04E-07  7.76E-06  0.00E+00  0.00E+00  7.05E-06  2.67E-04  4.90E-03  0.01367
    618.  16.181  5.03E-06  1.92E-04  2.31E-08  8.83E-07  0.00E+00  0.00E+00  5.05E-06  1.93E-04  4.91E-03  0.00155
    620.  16.129  8.46E-06  3.25E-04  9.90E-07  3.81E-05  0.00E+00  0.00E+00  9.45E-06  3.63E-04  4.93E-03  0.06627
    622.  16.077  8.06E-06  3.12E-04  6.96E-07  2.69E-05  0.00E+00  0.00E+00  8.76E-06  3.39E-04  4.95E-03  0.04661
    624.  16.026  7.29E-06  2.84E-04  3.63E-07  1.41E-05  0.00E+00  0.00E+00  7.65E-06  2.98E-04  4.96E-03  0.02431
    626.  15.974  7.27E-06  2.85E-04  2.34E-07  9.18E-06  0.00E+00  0.00E+00  7.50E-06  2.94E-04  4.98E-03  0.01571
    628.  15.924  6.38E-06  2.52E-04  4.00E-08  1.58E-06  0.00E+00  0.00E+00  6.42E-06  2.53E-04  4.99E-03  0.00269
    630.  15.873  6.10E-06  2.42E-04  2.27E-08  9.03E-07  0.00E+00  0.00E+00  6.12E-06  2.43E-04  5.00E-03  0.00153
    632.  15.823  5.73E-06  2.29E-04  7.07E-09  2.82E-07  0.00E+00  0.00E+00  5.74E-06  2.29E-04  5.02E-03  0.00047
    634.  15.773  5.31E-06  2.13E-04  1.80E-09  7.23E-08  0.00E+00  0.00E+00  5.31E-06  2.13E-04  5.03E-03  0.00012
    636.  15.723  4.95E-06  2.00E-04  1.80E-10  7.29E-09  0.00E+00  0.00E+00  4.95E-06  2.00E-04  5.04E-03  0.00001
    638.  15.674  4.48E-06  1.83E-04  7.69E-11  3.13E-09  0.00E+00  0.00E+00  4.48E-06  1.83E-04  5.04E-03  0.00001
    640.  15.625  4.25E-06  1.74E-04  3.66E-12  1.50E-10  0.00E+00  0.00E+00  4.25E-06  1.74E-04  5.05E-03  0.00000
    642.  15.576  4.05E-06  1.67E-04  4.40E-13  1.81E-11  0.00E+00  0.00E+00  4.05E-06  1.67E-04  5.06E-03  0.00000
    644.  15.528  3.69E-06  1.53E-04  1.43E-14  5.91E-13  0.00E+00  0.00E+00  3.69E-06  1.53E-04  5.07E-03  0.00000
    646.  15.480  3.58E-06  1.49E-04  1.28E-16  5.35E-15  0.00E+00  0.00E+00  3.58E-06  1.49E-04  5.08E-03  0.00000
    648.  15.432  3.38E-06  1.42E-04  3.36E-19  1.41E-17  0.00E+00  0.00E+00  3.38E-06  1.42E-04  5.08E-03  0.00000
    650.  15.385  3.33E-06  1.41E-04  5.12E-23  2.16E-21  0.00E+00  0.00E+00  3.33E-06  1.41E-04  5.09E-03  0.00000
    652.  15.337  3.32E-06  1.41E-04  1.74E-18  7.40E-17  0.00E+00  0.00E+00  3.32E-06  1.41E-04  5.10E-03  0.00000
    654.  15.291  3.26E-06  1.40E-04  8.93E-17  3.82E-15  0.00E+00  0.00E+00  3.26E-06  1.40E-04  5.10E-03  0.00000
    656.  15.244  3.30E-06  1.42E-04  9.02E-17  3.88E-15  0.00E+00  0.00E+00  3.30E-06  1.42E-04  5.11E-03  0.00000
    658.  15.198  3.23E-06  1.40E-04  3.58E-18  1.55E-16  0.00E+00  0.00E+00  3.23E-06  1.40E-04  5.12E-03  0.00000
    660.  15.152  3.22E-06  1.40E-04  2.26E-17  9.82E-16  0.00E+00  0.00E+00  3.22E-06  1.40E-04  5.12E-03  0.00000
    662.  15.106  3.18E-06  1.39E-04  1.68E-17  7.36E-16  0.00E+00  0.00E+00  3.18E-06  1.39E-04  5.13E-03  0.00000
    664.  15.060  3.17E-06  1.40E-04  8.06E-24  3.55E-22  0.00E+00  0.00E+00  3.17E-06  1.40E-04  5.13E-03  0.00000
    666.  15.015  3.13E-06  1.39E-04  2.24E-36  9.92E-35  0.00E+00  0.00E+00  3.13E-06  1.39E-04  5.14E-03  0.00000
    668.  14.970  3.33E-06  1.49E-04  0.00E+00  0.00E+00  0.00E+00  0.00E+00  3.33E-06  1.49E-04  5.15E-03  0.00000
    670.  14.925  3.15E-06  1.42E-04  9.61E-35  4.31E-33  0.00E+00  0.00E+00  3.15E-06  1.42E-04  5.15E-03  0.00000
    672.  14.881  3.06E-06  1.38E-04  1.13E-21  5.11E-20  0.00E+00  0.00E+00  3.06E-06  1.38E-04  5.16E-03  0.00000
    674.  14.837  3.10E-06  1.41E-04  1.23E-19  5.60E-18  0.00E+00  0.00E+00  3.10E-06  1.41E-04  5.17E-03  0.00000
    676.  14.793  3.05E-06  1.39E-04  2.68E-18  1.22E-16  0.00E+00  0.00E+00  3.05E-06  1.39E-04  5.17E-03  0.00000
    678.  14.749  3.03E-06  1.39E-04  2.53E-20  1.16E-18  0.00E+00  0.00E+00  3.03E-06  1.39E-04  5.18E-03  0.00000
    680.  14.706  2.99E-06  1.38E-04  3.21E-20  1.48E-18  0.00E+00  0.00E+00  2.99E-06  1.38E-04  5.18E-03  0.00000
    682.  14.663  3.02E-06  1.41E-04  5.19E-20  2.42E-18  0.00E+00  0.00E+00  3.02E-06  1.41E-04  5.19E-03  0.00000
    684.  14.620  3.07E-06  1.44E-04  4.54E-18  2.13E-16  0.00E+00  0.00E+00  3.07E-06  1.44E-04  5.20E-03  0.00000
    686.  14.577  3.11E-06  1.46E-04  5.94E-17  2.80E-15  0.00E+00  0.00E+00  3.11E-06  1.46E-04  5.20E-03  0.00000
    688.  14.535  3.10E-06  1.47E-04  8.70E-18  4.12E-16  0.00E+00  0.00E+00  3.10E-06  1.47E-04  5.21E-03  0.00000
    690.  14.493  3.20E-06  1.52E-04  2.06E-17  9.81E-16  0.00E+00  0.00E+00  3.20E-06  1.52E-04  5.22E-03  0.00000
    692.  14.451  3.59E-06  1.72E-04  1.63E-14  7.82E-13  0.00E+00  0.00E+00  3.59E-06  1.72E-04  5.22E-03  0.00000
    694.  14.409  3.71E-06  1.79E-04  2.65E-13  1.28E-11  0.00E+00  0.00E+00  3.71E-06  1.79E-04  5.23E-03  0.00000
    696.  14.368  3.84E-06  1.86E-04  9.74E-13  4.72E-11  0.00E+00  0.00E+00  3.84E-06  1.86E-04  5.24E-03  0.00000
    698.  14.327  4.21E-06  2.05E-04  1.61E-11  7.82E-10  0.00E+00  0.00E+00  4.21E-06  2.05E-04  5.25E-03  0.00000
1                                             RADIANCE(WATTS/CM2-STER-XXX)
0  FREQ   WAVLEN    PATH THERMAL      SURFACE EMISSION    SURFACE REFLECTED     TOTAL RADIANCE   INTEGRAL    TOTAL
  (CM-1) (MICRN)    (CM-1)   (MICRN)    (CM-1)   (MICRN)    (CM-1)   (MICRN)    (CM-1)   (MICRN)    (CM-1)   TRANS

    700.  14.286  4.84E-06  2.37E-04  5.72E-10  2.80E-08  0.00E+00  0.00E+00  4.84E-06  2.37E-04  5.26E-03  0.00004
    702.  14.245  4.60E-06  2.27E-04  4.52E-10  2.23E-08  0.00E+00  0.00E+00  4.60E-06  2.27E-04  5.27E-03  0.00003
    704.  14.205  5.32E-06  2.64E-04  4.93E-09  2.44E-07  0.00E+00  0.00E+00  5.33E-06  2.64E-04  5.28E-03  0.00034
    706.  14.164  6.10E-06  3.04E-04  3.32E-08  1.66E-06  0.00E+00  0.00E+00  6.13E-06  3.06E-04  5.29E-03  0.00232
    708.  14.124  6.18E-06  3.10E-04  4.92E-08  2.47E-06  0.00E+00  0.00E+00  6.23E-06  3.12E-04  5.30E-03  0.00344
    710.  14.085  6.48E-06  3.27E-04  1.05E-07  5.30E-06  0.00E+00  0.00E+00  6.59E-06  3.32E-04  5.31E-03  0.00735
    712.  14.045  6.88E-06  3.49E-04  2.97E-07  1.51E-05  0.00E+00  0.00E+00  7.18E-06  3.64E-04  5.33E-03  0.02080
    714.  14.006  7.14E-06  3.64E-04  4.38E-07  2.23E-05  0.00E+00  0.00E+00  7.58E-06  3.86E-04  5.34E-03  0.03074
    716.  13.966  7.60E-06  3.89E-04  5.77E-07  2.96E-05  0.00E+00  0.00E+00  8.17E-06  4.19E-04  5.36E-03  0.04056
    718.  13.928  6.50E-06  3.35E-04  1.61E-07  8.31E-06  0.00E+00  0.00E+00  6.66E-06  3.44E-04  5.37E-03  0.01134
    720.  13.889  3.68E-06  1.91E-04  1.55E-10  8.02E-09  0.00E+00  0.00E+00  3.68E-06  1.91E-04  5.38E-03  0.00001
    722.  13.850  6.78E-06  3.53E-04  8.98E-07  4.68E-05  0.00E+00  0.00E+00  7.68E-06  4.00E-04  5.40E-03  0.06343
    724.  13.812  7.44E-06  3.90E-04  1.82E-06  9.52E-05  0.00E+00  0.00E+00  9.26E-06  4.85E-04  5.41E-03  0.12836
    726.  13.774  6.80E-06  3.58E-04  3.39E-06  1.79E-04  0.00E+00  0.00E+00  1.02E-05  5.37E-04  5.43E-03  0.24034
    728.  13.736  7.24E-06  3.84E-04  2.50E-06  1.32E-04  0.00E+00  0.00E+00  9.74E-06  5.16E-04  5.45E-03  0.17730
    730.  13.699  7.06E-06  3.76E-04  1.81E-06  9.64E-05  0.00E+00  0.00E+00  8.87E-06  4.73E-04  5.47E-03  0.12856
    732.  13.661  7.06E-06  3.78E-04  1.56E-06  8.38E-05  0.00E+00  0.00E+00  8.62E-06  4.62E-04  5.49E-03  0.11137
    734.  13.624  7.36E-06  3.96E-04  2.10E-06  1.13E-04  0.00E+00  0.00E+00  9.45E-06  5.09E-04  5.51E-03  0.14943
    736.  13.587  7.06E-06  3.83E-04  1.77E-06  9.59E-05  0.00E+00  0.00E+00  8.83E-06  4.78E-04  5.53E-03  0.12648
    738.  13.550  7.14E-06  3.89E-04  1.46E-06  7.93E-05  0.00E+00  0.00E+00  8.60E-06  4.68E-04  5.54E-03  0.10415
    740.  13.514  7.46E-06  4.09E-04  1.39E-06  7.62E-05  0.00E+00  0.00E+00  8.85E-06  4.85E-04  5.56E-03  0.09971
    742.  13.477  6.34E-06  3.49E-04  1.51E-06  8.33E-05  0.00E+00  0.00E+00  7.86E-06  4.32E-04  5.58E-03  0.10878
    744.  13.441  6.50E-06  3.60E-04  3.77E-06  2.09E-04  0.00E+00  0.00E+00  1.03E-05  5.68E-04  5.60E-03  0.27108
    746.  13.405  5.98E-06  3.33E-04  5.18E-06  2.89E-04  0.00E+00  0.00E+00  1.12E-05  6.21E-04  5.62E-03  0.37365
    748.  13.369  5.92E-06  3.31E-04  4.91E-06  2.75E-04  0.00E+00  0.00E+00  1.08E-05  6.06E-04  5.64E-03  0.35460
    750.  13.333  5.90E-06  3.32E-04  5.16E-06  2.90E-04  0.00E+00  0.00E+00  1.11E-05  6.22E-04  5.66E-03  0.37290
    752.  13.298  4.99E-06  2.82E-04  6.91E-06  3.91E-04  0.00E+00  0.00E+00  1.19E-05  6.73E-04  5.69E-03  0.50083
    754.  13.263  5.35E-06  3.04E-04  6.31E-06  3.59E-04  0.00E+00  0.00E+00  1.17E-05  6.63E-04  5.71E-03  0.45806
    756.  13.228  5.36E-06  3.06E-04  6.53E-06  3.73E-04  0.00E+00  0.00E+00  1.19E-05  6.79E-04  5.73E-03  0.47488
    758.  13.193  4.08E-06  2.34E-04  8.44E-06  4.85E-04  0.00E+00  0.00E+00  1.25E-05  7.19E-04  5.76E-03  0.61547
    760.  13.158  3.60E-06  2.08E-04  9.05E-06  5.23E-04  0.00E+00  0.00E+00  1.27E-05  7.31E-04  5.78E-03  0.66091
    762.  13.123  3.10E-06  1.80E-04  9.77E-06  5.68E-04  0.00E+00  0.00E+00  1.29E-05  7.48E-04  5.81E-03  0.71525
    764.  13.089  2.24E-06  1.31E-04  1.09E-05  6.38E-04  0.00E+00  0.00E+00  1.32E-05  7.69E-04  5.84E-03  0.80105
    766.  13.055  2.34E-06  1.37E-04  1.08E-05  6.32E-04  0.00E+00  0.00E+00  1.31E-05  7.70E-04  5.86E-03  0.79171
    768.  13.021  1.98E-06  1.17E-04  1.12E-05  6.63E-04  0.00E+00  0.00E+00  1.32E-05  7.80E-04  5.89E-03  0.82755
    770.  12.987  1.71E-06  1.02E-04  1.15E-05  6.85E-04  0.00E+00  0.00E+00  1.33E-05  7.86E-04  5.92E-03  0.85206
    772.  12.953  1.51E-06  9.01E-05  1.18E-05  7.02E-04  0.00E+00  0.00E+00  1.33E-05  7.92E-04  5.94E-03  0.87113
    774.  12.920  1.44E-06  8.64E-05  1.18E-05  7.09E-04  0.00E+00  0.00E+00  1.33E-05  7.96E-04  5.97E-03  0.87708
    776.  12.887  1.32E-06  7.93E-05  1.20E-05  7.20E-04  0.00E+00  0.00E+00  1.33E-05  8.00E-04  5.99E-03  0.88800
    778.  12.853  1.17E-06  7.07E-05  1.21E-05  7.34E-04  0.00E+00  0.00E+00  1.33E-05  8.05E-04  6.02E-03  0.90218
    780.  12.821  1.13E-06  6.87E-05  1.21E-05  7.39E-04  0.00E+00  0.00E+00  1.33E-05  8.08E-04  6.05E-03  0.90565
    782.  12.788  1.14E-06  6.96E-05  1.21E-05  7.40E-04  0.00E+00  0.00E+00  1.32E-05  8.10E-04  6.07E-03  0.90409
    784.  12.755  1.07E-06  6.58E-05  1.21E-05  7.47E-04  0.00E+00  0.00E+00  1.32E-05  8.12E-04  6.10E-03  0.90938
    786.  12.723  9.77E-07  6.04E-05  1.23E-05  7.57E-04  0.00E+00  0.00E+00  1.32E-05  8.17E-04  6.13E-03  0.91943
    788.  12.690  9.58E-07  5.95E-05  1.22E-05  7.60E-04  0.00E+00  0.00E+00  1.32E-05  8.20E-04  6.15E-03  0.92082
    790.  12.658  1.24E-06  7.73E-05  1.18E-05  7.39E-04  0.00E+00  0.00E+00  1.31E-05  8.16E-04  6.18E-03  0.89239
    792.  12.626  3.61E-06  2.26E-04  8.44E-06  5.30E-04  0.00E+00  0.00E+00  1.21E-05  7.56E-04  6.20E-03  0.63778
    794.  12.594  1.33E-06  8.41E-05  1.16E-05  7.34E-04  0.00E+00  0.00E+00  1.30E-05  8.18E-04  6.23E-03  0.88177
    796.  12.563  1.06E-06  6.70E-05  1.20E-05  7.57E-04  0.00E+00  0.00E+00  1.30E-05  8.24E-04  6.26E-03  0.90683
    798.  12.531  1.11E-06  7.08E-05  1.19E-05  7.55E-04  0.00E+00  0.00E+00  1.30E-05  8.26E-04  6.28E-03  0.90154
1                                             RADIANCE(WATTS/CM2-STER-XXX)
0  FREQ   WAVLEN    PATH THERMAL      SURFACE EMISSION    SURFACE REFLECTED     TOTAL RADIANCE   INTEGRAL    TOTAL
  (CM-1) (MICRN)    (CM-1)   (MICRN)    (CM-1)   (MICRN)    (CM-1)   (MICRN)    (CM-1)   (MICRN)    (CM-1)   TRANS

    800.  12.500  1.04E-06  6.68E-05  1.19E-05  7.63E-04  0.00E+00  0.00E+00  1.30E-05  8.30E-04  6.31E-03  0.90919
    802.  12.469  1.12E-06  7.24E-05  1.18E-05  7.59E-04  0.00E+00  0.00E+00  1.29E-05  8.31E-04  6.33E-03  0.90165
    804.  12.438  1.04E-06  6.75E-05  1.19E-05  7.68E-04  0.00E+00  0.00E+00  1.29E-05  8.36E-04  6.36E-03  0.90998
    806.  12.407  1.11E-06  7.22E-05  1.18E-05  7.64E-04  0.00E+00  0.00E+00  1.29E-05  8.37E-04  6.39E-03  0.90316
    808.  12.376  1.10E-06  7.15E-05  1.18E-05  7.67E-04  0.00E+00  0.00E+00  1.28E-05  8.39E-04  6.41E-03  0.90443
    810.  12.346  1.00E-06  6.57E-05  1.19E-05  7.78E-04  0.00E+00  0.00E+00  1.29E-05  8.43E-04  6.44E-03  0.91428
    812.  12.315  1.03E-06  6.82E-05  1.18E-05  7.77E-04  0.00E+00  0.00E+00  1.28E-05  8.45E-04  6.46E-03  0.91066
    814.  12.285  9.58E-07  6.35E-05  1.18E-05  7.85E-04  0.00E+00  0.00E+00  1.28E-05  8.49E-04  6.49E-03  0.91835
    816.  12.255  9.79E-07  6.52E-05  1.18E-05  7.85E-04  0.00E+00  0.00E+00  1.28E-05  8.50E-04  6.51E-03  0.91613
    818.  12.225  9.16E-07  6.13E-05  1.18E-05  7.92E-04  0.00E+00  0.00E+00  1.28E-05  8.54E-04  6.54E-03  0.92241
    820.  12.195  9.21E-07  6.19E-05  1.18E-05  7.94E-04  0.00E+00  0.00E+00  1.27E-05  8.56E-04  6.56E-03  0.92181
    822.  12.165  8.90E-07  6.01E-05  1.18E-05  7.98E-04  0.00E+00  0.00E+00  1.27E-05  8.59E-04  6.59E-03  0.92486
    824.  12.136  8.59E-07  5.83E-05  1.18E-05  8.03E-04  0.00E+00  0.00E+00  1.27E-05  8.61E-04  6.62E-03  0.92790
    826.  12.107  8.49E-07  5.80E-05  1.18E-05  8.06E-04  0.00E+00  0.00E+00  1.27E-05  8.64E-04  6.64E-03  0.92882
    828.  12.077  9.18E-07  6.29E-05  1.17E-05  8.01E-04  0.00E+00  0.00E+00  1.26E-05  8.64E-04  6.67E-03  0.92182
    830.  12.048  8.58E-07  5.91E-05  1.17E-05  8.08E-04  0.00E+00  0.00E+00  1.26E-05  8.67E-04  6.69E-03  0.92777
    832.  12.019  8.44E-07  5.84E-05  1.17E-05  8.11E-04  0.00E+00  0.00E+00  1.26E-05  8.70E-04  6.72E-03  0.92887
    834.  11.990  8.49E-07  5.91E-05  1.17E-05  8.12E-04  0.00E+00  0.00E+00  1.25E-05  8.71E-04  6.74E-03  0.92805
    836.  11.962  8.51E-07  5.94E-05  1.16E-05  8.14E-04  0.00E+00  0.00E+00  1.25E-05  8.73E-04  6.77E-03  0.92758
    838.  11.933  8.58E-07  6.02E-05  1.16E-05  8.14E-04  0.00E+00  0.00E+00  1.25E-05  8.75E-04  6.79E-03  0.92643
    840.  11.905  8.67E-07  6.12E-05  1.15E-05  8.15E-04  0.00E+00  0.00E+00  1.24E-05  8.76E-04  6.82E-03  0.92489
    842.  11.876  8.86E-07  6.28E-05  1.15E-05  8.14E-04  0.00E+00  0.00E+00  1.24E-05  8.77E-04  6.84E-03  0.92209
    844.  11.848  9.06E-07  6.45E-05  1.14E-05  8.13E-04  0.00E+00  0.00E+00  1.23E-05  8.77E-04  6.87E-03  0.91885
    846.  11.820  9.17E-07  6.57E-05  1.14E-05  8.13E-04  0.00E+00  0.00E+00  1.23E-05  8.78E-04  6.89E-03  0.91662
    848.  11.792  9.16E-07  6.59E-05  1.13E-05  8.14E-04  0.00E+00  0.00E+00  1.22E-05  8.80E-04  6.91E-03  0.91647
    850.  11.765  9.11E-07  6.58E-05  1.13E-05  8.16E-04  0.00E+00  0.00E+00  1.22E-05  8.82E-04  6.94E-03  0.91645
    852.  11.737  8.92E-07  6.47E-05  1.13E-05  8.20E-04  0.00E+00  0.00E+00  1.22E-05  8.84E-04  6.96E-03  0.91915
    854.  11.710  8.72E-07  6.36E-05  1.13E-05  8.24E-04  0.00E+00  0.00E+00  1.22E-05  8.88E-04  6.99E-03  0.92234
    856.  11.682  8.53E-07  6.25E-05  1.13E-05  8.28E-04  0.00E+00  0.00E+00  1.21E-05  8.90E-04  7.01E-03  0.92458
    858.  11.655  8.44E-07  6.21E-05  1.13E-05  8.30E-04  0.00E+00  0.00E+00  1.21E-05  8.92E-04  7.04E-03  0.92553
    860.  11.628  8.34E-07  6.17E-05  1.13E-05  8.33E-04  0.00E+00  0.00E+00  1.21E-05  8.94E-04  7.06E-03  0.92643
    862.  11.601  8.34E-07  6.20E-05  1.12E-05  8.34E-04  0.00E+00  0.00E+00  1.21E-05  8.96E-04  7.08E-03  0.92609
    864.  11.574  8.51E-07  6.35E-05  1.12E-05  8.33E-04  0.00E+00  0.00E+00  1.20E-05  8.97E-04  7.11E-03  0.92370
    866.  11.547  8.36E-07  6.27E-05  1.11E-05  8.36E-04  0.00E+00  0.00E+00  1.20E-05  8.98E-04  7.13E-03  0.92489
    868.  11.521  8.47E-07  6.38E-05  1.11E-05  8.36E-04  0.00E+00  0.00E+00  1.19E-05  9.00E-04  7.16E-03  0.92336
    870.  11.494  8.41E-07  6.36E-05  1.11E-05  8.38E-04  0.00E+00  0.00E+00  1.19E-05  9.01E-04  7.18E-03  0.92358
    872.  11.468  8.46E-07  6.43E-05  1.10E-05  8.38E-04  0.00E+00  0.00E+00  1.19E-05  9.03E-04  7.20E-03  0.92278
    874.  11.442  8.46E-07  6.46E-05  1.10E-05  8.40E-04  0.00E+00  0.00E+00  1.18E-05  9.04E-04  7.23E-03  0.92259
    876.  11.416  8.48E-07  6.51E-05  1.10E-05  8.41E-04  0.00E+00  0.00E+00  1.18E-05  9.06E-04  7.25E-03  0.92214
    878.  11.390  8.55E-07  6.59E-05  1.09E-05  8.40E-04  0.00E+00  0.00E+00  1.17E-05  9.06E-04  7.27E-03  0.91970
    880.  11.364  8.55E-07  6.62E-05  1.09E-05  8.41E-04  0.00E+00  0.00E+00  1.17E-05  9.07E-04  7.30E-03  0.91968
    882.  11.338  8.56E-07  6.66E-05  1.08E-05  8.42E-04  0.00E+00  0.00E+00  1.17E-05  9.09E-04  7.32E-03  0.91975
    884.  11.312  8.59E-07  6.71E-05  1.08E-05  8.43E-04  0.00E+00  0.00E+00  1.16E-05  9.10E-04  7.34E-03  0.91869
    886.  11.287  8.59E-07  6.74E-05  1.07E-05  8.44E-04  0.00E+00  0.00E+00  1.16E-05  9.11E-04  7.37E-03  0.91836
    888.  11.261  8.69E-07  6.85E-05  1.07E-05  8.43E-04  0.00E+00  0.00E+00  1.16E-05  9.12E-04  7.39E-03  0.91657
    890.  11.236  8.63E-07  6.84E-05  1.07E-05  8.45E-04  0.00E+00  0.00E+00  1.15E-05  9.14E-04  7.41E-03  0.91724
    892.  11.211  8.70E-07  6.92E-05  1.06E-05  8.46E-04  0.00E+00  0.00E+00  1.15E-05  9.15E-04  7.44E-03  0.91647
    894.  11.186  8.61E-07  6.88E-05  1.06E-05  8.48E-04  0.00E+00  0.00E+00  1.15E-05  9.17E-04  7.46E-03  0.91776
    896.  11.161  8.68E-07  6.97E-05  1.06E-05  8.47E-04  0.00E+00  0.00E+00  1.14E-05  9.17E-04  7.48E-03  0.91526
    898.  11.136  8.62E-07  6.95E-05  1.06E-05  8.51E-04  0.00E+00  0.00E+00  1.14E-05  9.20E-04  7.51E-03  0.91791
1                                             RADIANCE(WATTS/CM2-STER-XXX)
0  FREQ   WAVLEN    PATH THERMAL      SURFACE EMISSION    SURFACE REFLECTED     TOTAL RADIANCE   INTEGRAL    TOTAL
  (CM-1) (MICRN)    (CM-1)   (MICRN)    (CM-1)   (MICRN)    (CM-1)   (MICRN)    (CM-1)   (MICRN)    (CM-1)   TRANS

    900.  11.111  8.64E-07  7.00E-05  1.05E-05  8.52E-04  0.00E+00  0.00E+00  1.14E-05  9.22E-04  7.53E-03  0.91748
    902.  11.086  8.65E-07  7.04E-05  1.05E-05  8.53E-04  0.00E+00  0.00E+00  1.13E-05  9.23E-04  7.55E-03  0.91716
    904.  11.062  8.71E-07  7.11E-05  1.04E-05  8.53E-04  0.00E+00  0.00E+00  1.13E-05  9.24E-04  7.57E-03  0.91623
    906.  11.038  8.76E-07  7.19E-05  1.04E-05  8.53E-04  0.00E+00  0.00E+00  1.13E-05  9.25E-04  7.60E-03  0.91516
    908.  11.013  8.95E-07  7.38E-05  1.03E-05  8.51E-04  0.00E+00  0.00E+00  1.12E-05  9.25E-04  7.62E-03  0.91234
    910.  10.989  9.00E-07  7.45E-05  1.03E-05  8.51E-04  0.00E+00  0.00E+00  1.12E-05  9.26E-04  7.64E-03  0.91117
    912.  10.965  9.05E-07  7.53E-05  1.02E-05  8.52E-04  0.00E+00  0.00E+00  1.11E-05  9.27E-04  7.66E-03  0.91035
    914.  10.941  9.12E-07  7.62E-05  1.02E-05  8.52E-04  0.00E+00  0.00E+00  1.11E-05  9.28E-04  7.69E-03  0.90930
    916.  10.917  9.14E-07  7.67E-05  1.02E-05  8.53E-04  0.00E+00  0.00E+00  1.11E-05  9.29E-04  7.71E-03  0.90894
    918.  10.893  9.21E-07  7.76E-05  1.01E-05  8.53E-04  0.00E+00  0.00E+00  1.10E-05  9.30E-04  7.73E-03  0.90823
    920.  10.870  9.35E-07  7.91E-05  1.01E-05  8.52E-04  0.00E+00  0.00E+00  1.10E-05  9.31E-04  7.75E-03  0.90607
    922.  10.846  9.65E-07  8.21E-05  9.97E-06  8.48E-04  0.00E+00  0.00E+00  1.09E-05  9.30E-04  7.77E-03  0.90073
    924.  10.823  9.41E-07  8.03E-05  9.99E-06  8.53E-04  0.00E+00  0.00E+00  1.09E-05  9.33E-04  7.80E-03  0.90491
    926.  10.799  9.51E-07  8.16E-05  9.94E-06  8.52E-04  0.00E+00  0.00E+00  1.09E-05  9.34E-04  7.82E-03  0.90350
    928.  10.776  9.72E-07  8.37E-05  9.87E-06  8.50E-04  0.00E+00  0.00E+00  1.08E-05  9.34E-04  7.84E-03  0.90032
    930.  10.753  1.00E-06  8.65E-05  9.80E-06  8.48E-04  0.00E+00  0.00E+00  1.08E-05  9.34E-04  7.86E-03  0.89672
    932.  10.730  1.02E-06  8.83E-05  9.75E-06  8.47E-04  0.00E+00  0.00E+00  1.08E-05  9.35E-04  7.88E-03  0.89525
    934.  10.707  1.00E-06  8.75E-05  9.74E-06  8.50E-04  0.00E+00  0.00E+00  1.07E-05  9.37E-04  7.90E-03  0.89712
    936.  10.684  1.01E-06  8.83E-05  9.71E-06  8.50E-04  0.00E+00  0.00E+00  1.07E-05  9.39E-04  7.92E-03  0.89675
    938.  10.661  1.02E-06  8.95E-05  9.66E-06  8.50E-04  0.00E+00  0.00E+00  1.07E-05  9.39E-04  7.95E-03  0.89542
    940.  10.638  1.03E-06  9.11E-05  9.60E-06  8.48E-04  0.00E+00  0.00E+00  1.06E-05  9.40E-04  7.97E-03  0.89315
    942.  10.616  1.13E-06  1.00E-04  9.43E-06  8.37E-04  0.00E+00  0.00E+00  1.06E-05  9.37E-04  7.99E-03  0.88009
    944.  10.593  1.06E-06  9.48E-05  9.48E-06  8.45E-04  0.00E+00  0.00E+00  1.05E-05  9.40E-04  8.01E-03  0.88784
    946.  10.571  1.07E-06  9.60E-05  9.43E-06  8.44E-04  0.00E+00  0.00E+00  1.05E-05  9.40E-04  8.03E-03  0.88623
    948.  10.549  1.16E-06  1.04E-04  9.27E-06  8.33E-04  0.00E+00  0.00E+00  1.04E-05  9.37E-04  8.05E-03  0.87374
    950.  10.526  1.06E-06  9.60E-05  9.37E-06  8.46E-04  0.00E+00  0.00E+00  1.04E-05  9.42E-04  8.07E-03  0.88638
    952.  10.504  1.06E-06  9.60E-05  9.34E-06  8.47E-04  0.00E+00  0.00E+00  1.04E-05  9.43E-04  8.09E-03  0.88662
    954.  10.482  1.03E-06  9.36E-05  9.35E-06  8.51E-04  0.00E+00  0.00E+00  1.04E-05  9.44E-04  8.11E-03  0.89025
    956.  10.460  1.05E-06  9.63E-05  9.28E-06  8.48E-04  0.00E+00  0.00E+00  1.03E-05  9.44E-04  8.13E-03  0.88637
    958.  10.438  9.72E-07  8.92E-05  9.36E-06  8.59E-04  0.00E+00  0.00E+00  1.03E-05  9.48E-04  8.16E-03  0.89715
    960.  10.417  8.91E-07  8.21E-05  9.43E-06  8.69E-04  0.00E+00  0.00E+00  1.03E-05  9.52E-04  8.18E-03  0.90779
    962.  10.395  9.22E-07  8.54E-05  9.35E-06  8.66E-04  0.00E+00  0.00E+00  1.03E-05  9.51E-04  8.20E-03  0.90321
    964.  10.373  9.68E-07  8.99E-05  9.26E-06  8.60E-04  0.00E+00  0.00E+00  1.02E-05  9.50E-04  8.22E-03  0.89684
    966.  10.352  1.07E-06  1.00E-04  9.07E-06  8.46E-04  0.00E+00  0.00E+00  1.01E-05  9.47E-04  8.24E-03  0.88186
    968.  10.331  1.12E-06  1.05E-04  8.97E-06  8.40E-04  0.00E+00  0.00E+00  1.01E-05  9.45E-04  8.26E-03  0.87466
    970.  10.309  1.07E-06  1.00E-04  9.01E-06  8.48E-04  0.00E+00  0.00E+00  1.01E-05  9.48E-04  8.28E-03  0.88206
    972.  10.288  1.23E-06  1.16E-04  8.74E-06  8.26E-04  0.00E+00  0.00E+00  9.97E-06  9.42E-04  8.30E-03  0.85872
    974.  10.267  1.07E-06  1.02E-04  8.93E-06  8.47E-04  0.00E+00  0.00E+00  1.00E-05  9.49E-04  8.32E-03  0.88026
    976.  10.246  1.20E-06  1.14E-04  8.71E-06  8.30E-04  0.00E+00  0.00E+00  9.91E-06  9.44E-04  8.34E-03  0.86194
    978.  10.225  1.10E-06  1.05E-04  8.82E-06  8.43E-04  0.00E+00  0.00E+00  9.92E-06  9.49E-04  8.36E-03  0.87567
    980.  10.204  1.06E-06  1.02E-04  8.84E-06  8.49E-04  0.00E+00  0.00E+00  9.90E-06  9.51E-04  8.38E-03  0.88106
    982.  10.183  1.06E-06  1.02E-04  8.81E-06  8.50E-04  0.00E+00  0.00E+00  9.87E-06  9.52E-04  8.40E-03  0.88134
    984.  10.163  1.01E-06  9.74E-05  8.85E-06  8.57E-04  0.00E+00  0.00E+00  9.86E-06  9.54E-04  8.42E-03  0.88834
    986.  10.142  9.23E-07  8.97E-05  8.93E-06  8.68E-04  0.00E+00  0.00E+00  9.85E-06  9.58E-04  8.44E-03  0.89934
    988.  10.121  9.34E-07  9.12E-05  8.88E-06  8.67E-04  0.00E+00  0.00E+00  9.81E-06  9.58E-04  8.46E-03  0.89746
    990.  10.101  9.06E-07  8.88E-05  8.88E-06  8.70E-04  0.00E+00  0.00E+00  9.79E-06  9.59E-04  8.48E-03  0.90093
    992.  10.081  9.00E-07  8.86E-05  8.85E-06  8.71E-04  0.00E+00  0.00E+00  9.75E-06  9.60E-04  8.49E-03  0.90134
    994.  10.060  8.78E-07  8.68E-05  8.84E-06  8.74E-04  0.00E+00  0.00E+00  9.72E-06  9.61E-04  8.51E-03  0.90390
    996.  10.040  8.72E-07  8.65E-05  8.82E-06  8.75E-04  0.00E+00  0.00E+00  9.69E-06  9.61E-04  8.53E-03  0.90433
    998.  10.020  8.71E-07  8.67E-05  8.78E-06  8.75E-04  0.00E+00  0.00E+00  9.65E-06  9.61E-04  8.55E-03  0.90419
1                                             RADIANCE(WATTS/CM2-STER-XXX)
0  FREQ   WAVLEN    PATH THERMAL      SURFACE EMISSION    SURFACE REFLECTED     TOTAL RADIANCE   INTEGRAL    TOTAL
  (CM-1) (MICRN)    (CM-1)   (MICRN)    (CM-1)   (MICRN)    (CM-1)   (MICRN)    (CM-1)   (MICRN)    (CM-1)   TRANS

   1000.  10.000  8.70E-07  8.70E-05  8.75E-06  8.75E-04  0.00E+00  0.00E+00  9.62E-06  9.62E-04  8.57E-03  0.90386
   1002.   9.980  8.76E-07  8.79E-05  8.70E-06  8.74E-04  0.00E+00  0.00E+00  9.58E-06  9.62E-04  8.59E-03  0.90283
   1004.   9.960  8.81E-07  8.88E-05  8.66E-06  8.73E-04  0.00E+00  0.00E+00  9.54E-06  9.62E-04  8.61E-03  0.90189
   1006.   9.940  8.85E-07  8.96E-05  8.62E-06  8.73E-04  0.00E+00  0.00E+00  9.51E-06  9.62E-04  8.63E-03  0.90099
   1008.   9.921  8.97E-07  9.12E-05  8.57E-06  8.71E-04  0.00E+00  0.00E+00  9.47E-06  9.62E-04  8.65E-03  0.89907
   1010.   9.901  8.99E-07  9.17E-05  8.54E-06  8.71E-04  0.00E+00  0.00E+00  9.43E-06  9.62E-04  8.67E-03  0.89849
   1012.   9.881  9.08E-07  9.30E-05  8.49E-06  8.69E-04  0.00E+00  0.00E+00  9.40E-06  9.62E-04  8.69E-03  0.89693
   1014.   9.862  9.08E-07  9.34E-05  8.45E-06  8.69E-04  0.00E+00  0.00E+00  9.36E-06  9.63E-04  8.70E-03  0.89659
   1016.   9.843  9.15E-07  9.45E-05  8.41E-06  8.68E-04  0.00E+00  0.00E+00  9.33E-06  9.63E-04  8.72E-03  0.89537
   1018.   9.823  9.23E-07  9.57E-05  8.36E-06  8.67E-04  0.00E+00  0.00E+00  9.29E-06  9.63E-04  8.74E-03  0.89389
   1020.   9.804  9.32E-07  9.70E-05  8.32E-06  8.65E-04  0.00E+00  0.00E+00  9.25E-06  9.62E-04  8.76E-03  0.89231
   1022.   9.785  9.44E-07  9.86E-05  8.27E-06  8.64E-04  0.00E+00  0.00E+00  9.21E-06  9.62E-04  8.78E-03  0.89031
   1024.   9.766  9.57E-07  1.00E-04  8.22E-06  8.61E-04  0.00E+00  0.00E+00  9.17E-06  9.62E-04  8.80E-03  0.88801
   1026.   9.747  9.73E-07  1.02E-04  8.16E-06  8.59E-04  0.00E+00  0.00E+00  9.13E-06  9.61E-04  8.82E-03  0.88522
   1028.   9.728  9.89E-07  1.05E-04  8.10E-06  8.56E-04  0.00E+00  0.00E+00  9.09E-06  9.61E-04  8.83E-03  0.88238
   1030.   9.709  1.01E-06  1.07E-04  8.04E-06  8.53E-04  0.00E+00  0.00E+00  9.05E-06  9.60E-04  8.85E-03  0.87921
   1032.   9.690  1.03E-06  1.10E-04  7.98E-06  8.49E-04  0.00E+00  0.00E+00  9.01E-06  9.59E-04  8.87E-03  0.87535
   1034.   9.671  1.05E-06  1.13E-04  7.91E-06  8.45E-04  0.00E+00  0.00E+00  8.96E-06  9.58E-04  8.89E-03  0.87114
   1036.   9.653  1.07E-06  1.15E-04  7.85E-06  8.42E-04  0.00E+00  0.00E+00  8.92E-06  9.57E-04  8.91E-03  0.86795
   1038.   9.634  1.09E-06  1.18E-04  7.78E-06  8.38E-04  0.00E+00  0.00E+00  8.87E-06  9.56E-04  8.92E-03  0.86368
   1040.   9.615  1.12E-06  1.21E-04  7.71E-06  8.34E-04  0.00E+00  0.00E+00  8.83E-06  9.55E-04  8.94E-03  0.85941
   1042.   9.597  1.14E-06  1.24E-04  7.64E-06  8.30E-04  0.00E+00  0.00E+00  8.78E-06  9.53E-04  8.96E-03  0.85511
   1044.   9.579  1.16E-06  1.26E-04  7.58E-06  8.26E-04  0.00E+00  0.00E+00  8.73E-06  9.52E-04  8.98E-03  0.85118
   1046.   9.560  1.20E-06  1.31E-04  7.48E-06  8.19E-04  0.00E+00  0.00E+00  8.68E-06  9.50E-04  8.99E-03  0.84391
   1048.   9.542  1.20E-06  1.31E-04  7.45E-06  8.18E-04  0.00E+00  0.00E+00  8.65E-06  9.50E-04  9.01E-03  0.84345
   1050.   9.524  1.30E-06  1.43E-04  7.26E-06  8.01E-04  0.00E+00  0.00E+00  8.56E-06  9.43E-04  9.03E-03  0.82545
   1052.   9.506  1.21E-06  1.34E-04  7.35E-06  8.14E-04  0.00E+00  0.00E+00  8.57E-06  9.48E-04  9.05E-03  0.83903
   1054.   9.488  1.21E-06  1.34E-04  7.33E-06  8.14E-04  0.00E+00  0.00E+00  8.53E-06  9.48E-04  9.06E-03  0.83936
   1056.   9.470  1.27E-06  1.41E-04  7.20E-06  8.03E-04  0.00E+00  0.00E+00  8.47E-06  9.44E-04  9.08E-03  0.82863
   1058.   9.452  1.16E-06  1.30E-04  7.33E-06  8.20E-04  0.00E+00  0.00E+00  8.49E-06  9.50E-04  9.10E-03  0.84654
   1060.   9.434  1.12E-06  1.26E-04  7.36E-06  8.27E-04  0.00E+00  0.00E+00  8.48E-06  9.53E-04  9.11E-03  0.85329
   1062.   9.416  1.10E-06  1.24E-04  7.35E-06  8.29E-04  0.00E+00  0.00E+00  8.45E-06  9.53E-04  9.13E-03  0.85585
   1064.   9.398  1.03E-06  1.16E-04  7.43E-06  8.41E-04  0.00E+00  0.00E+00  8.46E-06  9.57E-04  9.15E-03  0.86869
   1066.   9.381  1.10E-06  1.25E-04  7.28E-06  8.27E-04  0.00E+00  0.00E+00  8.38E-06  9.53E-04  9.16E-03  0.85466
   1068.   9.363  1.19E-06  1.36E-04  7.10E-06  8.10E-04  0.00E+00  0.00E+00  8.30E-06  9.47E-04  9.18E-03  0.83714
   1070.   9.346  1.26E-06  1.44E-04  6.97E-06  7.98E-04  0.00E+00  0.00E+00  8.23E-06  9.42E-04  9.20E-03  0.82458
   1072.   9.328  1.30E-06  1.49E-04  6.88E-06  7.90E-04  0.00E+00  0.00E+00  8.17E-06  9.39E-04  9.21E-03  0.81677
   1074.   9.311  1.25E-06  1.44E-04  6.92E-06  7.98E-04  0.00E+00  0.00E+00  8.17E-06  9.42E-04  9.23E-03  0.82568
   1076.   9.294  1.42E-06  1.65E-04  6.61E-06  7.66E-04  0.00E+00  0.00E+00  8.04E-06  9.31E-04  9.25E-03  0.79212
   1078.   9.276  1.26E-06  1.46E-04  6.85E-06  7.96E-04  0.00E+00  0.00E+00  8.10E-06  9.42E-04  9.26E-03  0.82343
   1080.   9.259  1.40E-06  1.63E-04  6.60E-06  7.70E-04  0.00E+00  0.00E+00  7.99E-06  9.32E-04  9.28E-03  0.79677
   1082.   9.242  1.35E-06  1.58E-04  6.64E-06  7.78E-04  0.00E+00  0.00E+00  7.99E-06  9.36E-04  9.29E-03  0.80527
   1084.   9.225  1.20E-06  1.41E-04  6.84E-06  8.03E-04  0.00E+00  0.00E+00  8.04E-06  9.44E-04  9.31E-03  0.83227
   1086.   9.208  1.26E-06  1.49E-04  6.71E-06  7.92E-04  0.00E+00  0.00E+00  7.97E-06  9.40E-04  9.33E-03  0.82051
   1088.   9.191  1.18E-06  1.40E-04  6.80E-06  8.05E-04  0.00E+00  0.00E+00  7.98E-06  9.44E-04  9.34E-03  0.83433
   1090.   9.174  1.13E-06  1.34E-04  6.83E-06  8.12E-04  0.00E+00  0.00E+00  7.96E-06  9.46E-04  9.36E-03  0.84245
   1092.   9.158  1.09E-06  1.30E-04  6.86E-06  8.18E-04  0.00E+00  0.00E+00  7.94E-06  9.47E-04  9.37E-03  0.84869
   1094.   9.141  1.05E-06  1.26E-04  6.87E-06  8.22E-04  0.00E+00  0.00E+00  7.92E-06  9.48E-04  9.39E-03  0.85391
   1096.   9.124  1.03E-06  1.24E-04  6.86E-06  8.24E-04  0.00E+00  0.00E+00  7.89E-06  9.48E-04  9.40E-03  0.85610
   1098.   9.107  1.02E-06  1.23E-04  6.84E-06  8.25E-04  0.00E+00  0.00E+00  7.86E-06  9.47E-04  9.42E-03  0.85737
1                                             RADIANCE(WATTS/CM2-STER-XXX)
0  FREQ   WAVLEN    PATH THERMAL      SURFACE EMISSION    SURFACE REFLECTED     TOTAL RADIANCE   INTEGRAL    TOTAL
  (CM-1) (MICRN)    (CM-1)   (MICRN)    (CM-1)   (MICRN)    (CM-1)   (MICRN)    (CM-1)   (MICRN)    (CM-1)   TRANS

   1100.   9.091  1.01E-06  1.22E-04  6.82E-06  8.25E-04  0.00E+00  0.00E+00  7.83E-06  9.47E-04  9.44E-03  0.85840
   1102.   9.074  1.00E-06  1.22E-04  6.79E-06  8.24E-04  0.00E+00  0.00E+00  7.79E-06  9.46E-04  9.45E-03  0.85770
   1104.   9.058  9.93E-07  1.21E-04  6.77E-06  8.25E-04  0.00E+00  0.00E+00  7.76E-06  9.46E-04  9.47E-03  0.85912
   1106.   9.042  9.78E-07  1.20E-04  6.76E-06  8.27E-04  0.00E+00  0.00E+00  7.73E-06  9.46E-04  9.48E-03  0.86130
   1108.   9.025  9.72E-07  1.19E-04  6.73E-06  8.26E-04  0.00E+00  0.00E+00  7.70E-06  9.46E-04  9.50E-03  0.86157
   1110.   9.009  9.65E-07  1.19E-04  6.71E-06  8.27E-04  0.00E+00  0.00E+00  7.67E-06  9.45E-04  9.51E-03  0.86237
   1112.   8.993  9.61E-07  1.19E-04  6.68E-06  8.26E-04  0.00E+00  0.00E+00  7.64E-06  9.44E-04  9.53E-03  0.86198
   1114.   8.977  9.54E-07  1.18E-04  6.66E-06  8.26E-04  0.00E+00  0.00E+00  7.61E-06  9.44E-04  9.54E-03  0.86301
   1116.   8.961  9.45E-07  1.18E-04  6.64E-06  8.26E-04  0.00E+00  0.00E+00  7.58E-06  9.44E-04  9.56E-03  0.86403
   1118.   8.945  9.38E-07  1.17E-04  6.61E-06  8.26E-04  0.00E+00  0.00E+00  7.55E-06  9.44E-04  9.57E-03  0.86459
   1120.   8.929  9.30E-07  1.17E-04  6.59E-06  8.26E-04  0.00E+00  0.00E+00  7.52E-06  9.43E-04  9.59E-03  0.86515
   1122.   8.913  9.27E-07  1.17E-04  6.56E-06  8.26E-04  0.00E+00  0.00E+00  7.49E-06  9.42E-04  9.60E-03  0.86495
   1124.   8.897  9.15E-07  1.16E-04  6.54E-06  8.27E-04  0.00E+00  0.00E+00  7.46E-06  9.42E-04  9.62E-03  0.86678
   1126.   8.881  9.09E-07  1.15E-04  6.52E-06  8.26E-04  0.00E+00  0.00E+00  7.43E-06  9.42E-04  9.63E-03  0.86714
   1128.   8.865  9.04E-07  1.15E-04  6.49E-06  8.26E-04  0.00E+00  0.00E+00  7.40E-06  9.41E-04  9.65E-03  0.86735
   1130.   8.850  9.04E-07  1.15E-04  6.46E-06  8.24E-04  0.00E+00  0.00E+00  7.36E-06  9.40E-04  9.66E-03  0.86621
   1132.   8.834  9.01E-07  1.15E-04  6.43E-06  8.23E-04  0.00E+00  0.00E+00  7.33E-06  9.39E-04  9.68E-03  0.86601
   1134.   8.818  9.05E-07  1.16E-04  6.38E-06  8.21E-04  0.00E+00  0.00E+00  7.29E-06  9.37E-04  9.69E-03  0.86380
   1136.   8.803  9.07E-07  1.17E-04  6.33E-06  8.17E-04  0.00E+00  0.00E+00  7.24E-06  9.34E-04  9.71E-03  0.86038
   1138.   8.787  9.10E-07  1.18E-04  6.30E-06  8.16E-04  0.00E+00  0.00E+00  7.21E-06  9.34E-04  9.72E-03  0.86001
   1140.   8.772  9.20E-07  1.20E-04  6.25E-06  8.12E-04  0.00E+00  0.00E+00  7.17E-06  9.31E-04  9.74E-03  0.85652
   1142.   8.757  9.27E-07  1.21E-04  6.19E-06  8.08E-04  0.00E+00  0.00E+00  7.12E-06  9.29E-04  9.75E-03  0.85302
   1144.   8.741  9.35E-07  1.22E-04  6.14E-06  8.03E-04  0.00E+00  0.00E+00  7.07E-06  9.25E-04  9.76E-03  0.84885
   1146.   8.726  9.47E-07  1.24E-04  6.07E-06  7.97E-04  0.00E+00  0.00E+00  7.02E-06  9.22E-04  9.78E-03  0.84354
   1148.   8.711  9.51E-07  1.25E-04  6.01E-06  7.93E-04  0.00E+00  0.00E+00  6.96E-06  9.18E-04  9.79E-03  0.83933
   1150.   8.696  9.58E-07  1.27E-04  5.96E-06  7.88E-04  0.00E+00  0.00E+00  6.91E-06  9.14E-04  9.81E-03  0.83492
   1152.   8.681  9.42E-07  1.25E-04  5.93E-06  7.87E-04  0.00E+00  0.00E+00  6.87E-06  9.12E-04  9.82E-03  0.83482
   1154.   8.666  9.34E-07  1.24E-04  5.89E-06  7.85E-04  0.00E+00  0.00E+00  6.83E-06  9.09E-04  9.83E-03  0.83371
   1156.   8.651  9.07E-07  1.21E-04  5.89E-06  7.88E-04  0.00E+00  0.00E+00  6.80E-06  9.09E-04  9.85E-03  0.83746
   1158.   8.636  8.89E-07  1.19E-04  5.88E-06  7.88E-04  0.00E+00  0.00E+00  6.77E-06  9.08E-04  9.86E-03  0.83913
   1160.   8.621  8.69E-07  1.17E-04  5.87E-06  7.90E-04  0.00E+00  0.00E+00  6.74E-06  9.07E-04  9.87E-03  0.84143
   1162.   8.606  8.27E-07  1.12E-04  5.91E-06  7.98E-04  0.00E+00  0.00E+00  6.74E-06  9.10E-04  9.89E-03  0.85098
   1164.   8.591  7.74E-07  1.05E-04  5.98E-06  8.11E-04  0.00E+00  0.00E+00  6.76E-06  9.16E-04  9.90E-03  0.86540
   1166.   8.576  7.46E-07  1.01E-04  5.99E-06  8.15E-04  0.00E+00  0.00E+00  6.74E-06  9.16E-04  9.91E-03  0.87066
   1168.   8.562  6.99E-07  9.53E-05  6.06E-06  8.27E-04  0.00E+00  0.00E+00  6.76E-06  9.22E-04  9.93E-03  0.88421
   1170.   8.547  7.04E-07  9.64E-05  6.00E-06  8.21E-04  0.00E+00  0.00E+00  6.70E-06  9.17E-04  9.94E-03  0.87908
   1172.   8.532  7.27E-07  9.98E-05  5.89E-06  8.09E-04  0.00E+00  0.00E+00  6.61E-06  9.09E-04  9.95E-03  0.86697
   1174.   8.518  7.13E-07  9.83E-05  5.86E-06  8.07E-04  0.00E+00  0.00E+00  6.57E-06  9.06E-04  9.97E-03  0.86637
   1176.   8.503  7.28E-07  1.01E-04  5.77E-06  7.98E-04  0.00E+00  0.00E+00  6.50E-06  8.99E-04  9.98E-03  0.85767
   1178.   8.489  7.18E-07  9.97E-05  5.76E-06  7.99E-04  0.00E+00  0.00E+00  6.48E-06  8.99E-04  9.99E-03  0.85983
   1180.   8.475  6.89E-07  9.59E-05  5.78E-06  8.05E-04  0.00E+00  0.00E+00  6.47E-06  9.01E-04  1.00E-02  0.86711
   1182.   8.460  6.69E-07  9.35E-05  5.78E-06  8.07E-04  0.00E+00  0.00E+00  6.45E-06  9.01E-04  1.00E-02  0.87036
   1184.   8.446  6.85E-07  9.60E-05  5.69E-06  7.98E-04  0.00E+00  0.00E+00  6.38E-06  8.94E-04  1.00E-02  0.86163
   1186.   8.432  6.26E-07  8.81E-05  5.77E-06  8.12E-04  0.00E+00  0.00E+00  6.40E-06  9.00E-04  1.00E-02  0.87771
   1188.   8.418  6.00E-07  8.47E-05  5.78E-06  8.16E-04  0.00E+00  0.00E+00  6.38E-06  9.01E-04  1.01E-02  0.88342
   1190.   8.403  5.83E-07  8.26E-05  5.78E-06  8.19E-04  0.00E+00  0.00E+00  6.37E-06  9.02E-04  1.01E-02  0.88744
   1192.   8.389  5.54E-07  7.87E-05  5.80E-06  8.24E-04  0.00E+00  0.00E+00  6.36E-06  9.03E-04  1.01E-02  0.89438
   1194.   8.375  5.15E-07  7.34E-05  5.84E-06  8.33E-04  0.00E+00  0.00E+00  6.36E-06  9.06E-04  1.01E-02  0.90441
   1196.   8.361  4.88E-07  6.98E-05  5.85E-06  8.37E-04  0.00E+00  0.00E+00  6.34E-06  9.07E-04  1.01E-02  0.91016
   1198.   8.347  4.77E-07  6.85E-05  5.82E-06  8.35E-04  0.00E+00  0.00E+00  6.30E-06  9.04E-04  1.01E-02  0.90928
1                                             RADIANCE(WATTS/CM2-STER-XXX)
0  FREQ   WAVLEN    PATH THERMAL      SURFACE EMISSION    SURFACE REFLECTED     TOTAL RADIANCE   INTEGRAL    TOTAL
  (CM-1) (MICRN)    (CM-1)   (MICRN)    (CM-1)   (MICRN)    (CM-1)   (MICRN)    (CM-1)   (MICRN)    (CM-1)   TRANS

   1200.   8.333  4.37E-07  6.29E-05  5.87E-06  8.45E-04  0.00E+00  0.00E+00  6.30E-06  9.08E-04  1.01E-02  0.92113
   1202.   8.319  4.16E-07  6.01E-05  5.87E-06  8.47E-04  0.00E+00  0.00E+00  6.28E-06  9.08E-04  1.01E-02  0.92520
   1204.   8.306  3.96E-07  5.74E-05  5.86E-06  8.50E-04  0.00E+00  0.00E+00  6.26E-06  9.07E-04  1.02E-02  0.92882
   1206.   8.292  3.81E-07  5.54E-05  5.85E-06  8.50E-04  0.00E+00  0.00E+00  6.23E-06  9.06E-04  1.02E-02  0.93094
   1208.   8.278  3.59E-07  5.24E-05  5.85E-06  8.54E-04  0.00E+00  0.00E+00  6.21E-06  9.06E-04  1.02E-02  0.93552
   1210.   8.264  3.43E-07  5.03E-05  5.83E-06  8.54E-04  0.00E+00  0.00E+00  6.18E-06  9.04E-04  1.02E-02  0.93726
   1212.   8.251  3.31E-07  4.86E-05  5.80E-06  8.52E-04  0.00E+00  0.00E+00  6.13E-06  9.00E-04  1.02E-02  0.93593
   1214.   8.237  3.13E-07  4.61E-05  5.81E-06  8.57E-04  0.00E+00  0.00E+00  6.13E-06  9.03E-04  1.02E-02  0.94277
   1216.   8.224  3.00E-07  4.43E-05  5.80E-06  8.57E-04  0.00E+00  0.00E+00  6.10E-06  9.02E-04  1.02E-02  0.94484
   1218.   8.210  2.88E-07  4.27E-05  5.78E-06  8.57E-04  0.00E+00  0.00E+00  6.06E-06  9.00E-04  1.02E-02  0.94565
   1220.   8.197  2.77E-07  4.13E-05  5.76E-06  8.57E-04  0.00E+00  0.00E+00  6.04E-06  8.98E-04  1.03E-02  0.94720
   1222.   8.183  2.75E-07  4.11E-05  5.74E-06  8.57E-04  0.00E+00  0.00E+00  6.01E-06  8.98E-04  1.03E-02  0.94821
   1224.   8.170  2.78E-07  4.17E-05  5.69E-06  8.52E-04  0.00E+00  0.00E+00  5.97E-06  8.94E-04  1.03E-02  0.94477
   1226.   8.157  2.78E-07  4.18E-05  5.66E-06  8.51E-04  0.00E+00  0.00E+00  5.94E-06  8.92E-04  1.03E-02  0.94423
   1228.   8.143  2.79E-07  4.21E-05  5.64E-06  8.51E-04  0.00E+00  0.00E+00  5.92E-06  8.93E-04  1.03E-02  0.94636
   1230.   8.130  2.84E-07  4.29E-05  5.61E-06  8.48E-04  0.00E+00  0.00E+00  5.89E-06  8.91E-04  1.03E-02  0.94471
   1232.   8.117  2.90E-07  4.40E-05  5.57E-06  8.45E-04  0.00E+00  0.00E+00  5.86E-06  8.89E-04  1.03E-02  0.94263
   1234.   8.104  2.98E-07  4.54E-05  5.53E-06  8.42E-04  0.00E+00  0.00E+00  5.83E-06  8.87E-04  1.03E-02  0.93998
   1236.   8.091  3.13E-07  4.78E-05  5.47E-06  8.36E-04  0.00E+00  0.00E+00  5.78E-06  8.84E-04  1.04E-02  0.93497
   1238.   8.078  3.30E-07  5.06E-05  5.42E-06  8.30E-04  0.00E+00  0.00E+00  5.75E-06  8.81E-04  1.04E-02  0.92981
   1240.   8.065  3.56E-07  5.47E-05  5.34E-06  8.22E-04  0.00E+00  0.00E+00  5.70E-06  8.76E-04  1.04E-02  0.92182
   1242.   8.052  3.90E-07  6.02E-05  5.26E-06  8.11E-04  0.00E+00  0.00E+00  5.65E-06  8.71E-04  1.04E-02  0.91091
   1244.   8.039  4.36E-07  6.75E-05  5.10E-06  7.90E-04  0.00E+00  0.00E+00  5.54E-06  8.57E-04  1.04E-02  0.88905
   1246.   8.026  4.84E-07  7.51E-05  5.03E-06  7.81E-04  0.00E+00  0.00E+00  5.51E-06  8.56E-04  1.04E-02  0.88026
   1248.   8.013  5.50E-07  8.57E-05  4.87E-06  7.59E-04  0.00E+00  0.00E+00  5.42E-06  8.45E-04  1.04E-02  0.85698
   1250.   8.000  6.28E-07  9.81E-05  4.69E-06  7.33E-04  0.00E+00  0.00E+00  5.32E-06  8.31E-04  1.04E-02  0.82863
   1252.   7.987  7.11E-07  1.11E-04  4.49E-06  7.03E-04  0.00E+00  0.00E+00  5.20E-06  8.15E-04  1.04E-02  0.79659
   1254.   7.974  9.50E-07  1.49E-04  3.92E-06  6.17E-04  0.00E+00  0.00E+00  4.87E-06  7.66E-04  1.04E-02  0.69977
   1256.   7.962  9.32E-07  1.47E-04  3.93E-06  6.19E-04  0.00E+00  0.00E+00  4.86E-06  7.66E-04  1.05E-02  0.70391
   1258.   7.949  1.00E-06  1.58E-04  3.72E-06  5.89E-04  0.00E+00  0.00E+00  4.72E-06  7.47E-04  1.05E-02  0.67001
   1260.   7.937  1.07E-06  1.70E-04  3.40E-06  5.40E-04  0.00E+00  0.00E+00  4.47E-06  7.10E-04  1.05E-02  0.61594
   1262.   7.924  1.17E-06  1.86E-04  3.22E-06  5.13E-04  0.00E+00  0.00E+00  4.39E-06  7.00E-04  1.05E-02  0.58637
   1264.   7.911  1.19E-06  1.90E-04  3.08E-06  4.93E-04  0.00E+00  0.00E+00  4.27E-06  6.83E-04  1.05E-02  0.56365
   1266.   7.899  1.29E-06  2.07E-04  2.67E-06  4.28E-04  0.00E+00  0.00E+00  3.96E-06  6.35E-04  1.05E-02  0.49038
   1268.   7.886  1.32E-06  2.12E-04  2.50E-06  4.03E-04  0.00E+00  0.00E+00  3.82E-06  6.14E-04  1.05E-02  0.46236
   1270.   7.874  1.34E-06  2.16E-04  2.47E-06  3.98E-04  0.00E+00  0.00E+00  3.81E-06  6.14E-04  1.05E-02  0.45819
   1272.   7.862  1.32E-06  2.13E-04  2.37E-06  3.84E-04  0.00E+00  0.00E+00  3.69E-06  5.97E-04  1.05E-02  0.44249
   1274.   7.849  1.34E-06  2.17E-04  2.27E-06  3.68E-04  0.00E+00  0.00E+00  3.61E-06  5.85E-04  1.05E-02  0.42428
   1276.   7.837  1.29E-06  2.10E-04  2.37E-06  3.86E-04  0.00E+00  0.00E+00  3.66E-06  5.95E-04  1.05E-02  0.44609
   1278.   7.825  1.23E-06  2.01E-04  2.62E-06  4.27E-04  0.00E+00  0.00E+00  3.85E-06  6.28E-04  1.05E-02  0.49488
   1280.   7.813  1.14E-06  1.87E-04  2.82E-06  4.62E-04  0.00E+00  0.00E+00  3.96E-06  6.48E-04  1.06E-02  0.53575
   1282.   7.800  1.07E-06  1.75E-04  2.93E-06  4.81E-04  0.00E+00  0.00E+00  3.99E-06  6.56E-04  1.06E-02  0.55959
   1284.   7.788  7.05E-07  1.16E-04  3.96E-06  6.52E-04  0.00E+00  0.00E+00  4.66E-06  7.68E-04  1.06E-02  0.75960
   1286.   7.776  7.71E-07  1.28E-04  3.72E-06  6.15E-04  0.00E+00  0.00E+00  4.49E-06  7.43E-04  1.06E-02  0.71781
   1288.   7.764  1.01E-06  1.68E-04  2.98E-06  4.94E-04  0.00E+00  0.00E+00  3.99E-06  6.61E-04  1.06E-02  0.57708
   1290.   7.752  1.16E-06  1.92E-04  2.52E-06  4.19E-04  0.00E+00  0.00E+00  3.67E-06  6.11E-04  1.06E-02  0.49074
   1292.   7.740  1.19E-06  1.98E-04  2.38E-06  3.97E-04  0.00E+00  0.00E+00  3.57E-06  5.95E-04  1.06E-02  0.46627
   1294.   7.728  1.23E-06  2.07E-04  2.25E-06  3.77E-04  0.00E+00  0.00E+00  3.49E-06  5.84E-04  1.06E-02  0.44362
   1296.   7.716  1.31E-06  2.20E-04  1.98E-06  3.33E-04  0.00E+00  0.00E+00  3.29E-06  5.53E-04  1.06E-02  0.39242
   1298.   7.704  1.31E-06  2.20E-04  2.03E-06  3.42E-04  0.00E+00  0.00E+00  3.34E-06  5.62E-04  1.06E-02  0.40339
1                                             RADIANCE(WATTS/CM2-STER-XXX)
0  FREQ   WAVLEN    PATH THERMAL      SURFACE EMISSION    SURFACE REFLECTED     TOTAL RADIANCE   INTEGRAL    TOTAL
  (CM-1) (MICRN)    (CM-1)   (MICRN)    (CM-1)   (MICRN)    (CM-1)   (MICRN)    (CM-1)   (MICRN)    (CM-1)   TRANS

   1300.   7.692  1.33E-06  2.24E-04  1.99E-06  3.37E-04  0.00E+00  0.00E+00  3.32E-06  5.61E-04  1.06E-02  0.39818
   1302.   7.680  1.32E-06  2.24E-04  1.96E-06  3.33E-04  0.00E+00  0.00E+00  3.29E-06  5.57E-04  1.06E-02  0.39436
   1304.   7.669  1.28E-06  2.18E-04  2.22E-06  3.77E-04  0.00E+00  0.00E+00  3.50E-06  5.95E-04  1.06E-02  0.44750
   1306.   7.657  1.20E-06  2.05E-04  2.46E-06  4.19E-04  0.00E+00  0.00E+00  3.66E-06  6.24E-04  1.07E-02  0.49835
   1308.   7.645  1.19E-06  2.04E-04  2.44E-06  4.17E-04  0.00E+00  0.00E+00  3.63E-06  6.21E-04  1.07E-02  0.49728
   1310.   7.634  1.07E-06  1.83E-04  2.88E-06  4.95E-04  0.00E+00  0.00E+00  3.95E-06  6.78E-04  1.07E-02  0.59047
   1312.   7.622  1.00E-06  1.72E-04  2.94E-06  5.07E-04  0.00E+00  0.00E+00  3.94E-06  6.79E-04  1.07E-02  0.60614
   1314.   7.610  8.43E-07  1.45E-04  3.28E-06  5.66E-04  0.00E+00  0.00E+00  4.12E-06  7.12E-04  1.07E-02  0.67916
   1316.   7.599  7.61E-07  1.32E-04  3.49E-06  6.05E-04  0.00E+00  0.00E+00  4.25E-06  7.37E-04  1.07E-02  0.72667
   1318.   7.587  6.29E-07  1.09E-04  3.64E-06  6.33E-04  0.00E+00  0.00E+00  4.27E-06  7.42E-04  1.07E-02  0.76188
   1320.   7.576  5.33E-07  9.28E-05  3.75E-06  6.53E-04  0.00E+00  0.00E+00  4.28E-06  7.46E-04  1.07E-02  0.78807
   1322.   7.564  4.43E-07  7.74E-05  4.12E-06  7.20E-04  0.00E+00  0.00E+00  4.56E-06  7.97E-04  1.07E-02  0.86994
   1324.   7.553  3.83E-07  6.71E-05  4.21E-06  7.38E-04  0.00E+00  0.00E+00  4.59E-06  8.05E-04  1.07E-02  0.89351
   1326.   7.541  3.49E-07  6.13E-05  4.23E-06  7.44E-04  0.00E+00  0.00E+00  4.58E-06  8.06E-04  1.07E-02  0.90328
   1328.   7.530  3.19E-07  5.63E-05  4.27E-06  7.54E-04  0.00E+00  0.00E+00  4.59E-06  8.10E-04  1.07E-02  0.91681
   1330.   7.519  3.07E-07  5.42E-05  4.26E-06  7.53E-04  0.00E+00  0.00E+00  4.57E-06  8.08E-04  1.08E-02  0.91802
   1332.   7.508  2.99E-07  5.31E-05  4.26E-06  7.55E-04  0.00E+00  0.00E+00  4.56E-06  8.08E-04  1.08E-02  0.92228
   1334.   7.496  2.96E-07  5.26E-05  4.23E-06  7.54E-04  0.00E+00  0.00E+00  4.53E-06  8.06E-04  1.08E-02  0.92218
   1336.   7.485  3.02E-07  5.40E-05  4.11E-06  7.33E-04  0.00E+00  0.00E+00  4.41E-06  7.87E-04  1.08E-02  0.89888
   1338.   7.474  3.15E-07  5.64E-05  3.90E-06  6.98E-04  0.00E+00  0.00E+00  4.21E-06  7.54E-04  1.08E-02  0.85778
   1340.   7.463  3.40E-07  6.11E-05  3.47E-06  6.23E-04  0.00E+00  0.00E+00  3.81E-06  6.84E-04  1.08E-02  0.76787
   1342.   7.452  2.99E-07  5.39E-05  4.13E-06  7.44E-04  0.00E+00  0.00E+00  4.43E-06  7.98E-04  1.08E-02  0.91856
   1344.   7.440  3.00E-07  5.43E-05  4.12E-06  7.44E-04  0.00E+00  0.00E+00  4.42E-06  7.98E-04  1.08E-02  0.92012
   1346.   7.429  3.01E-07  5.45E-05  4.10E-06  7.43E-04  0.00E+00  0.00E+00  4.40E-06  7.97E-04  1.08E-02  0.92081
   1348.   7.418  3.09E-07  5.62E-05  3.97E-06  7.21E-04  0.00E+00  0.00E+00  4.28E-06  7.77E-04  1.08E-02  0.89591
   1350.   7.407  3.10E-07  5.65E-05  3.94E-06  7.18E-04  0.00E+00  0.00E+00  4.25E-06  7.74E-04  1.08E-02  0.89377
   1352.   7.396  3.05E-07  5.58E-05  4.03E-06  7.36E-04  0.00E+00  0.00E+00  4.33E-06  7.92E-04  1.09E-02  0.91838
   1354.   7.386  3.09E-07  5.67E-05  3.92E-06  7.19E-04  0.00E+00  0.00E+00  4.23E-06  7.76E-04  1.09E-02  0.89913
   1356.   7.375  3.10E-07  5.71E-05  3.90E-06  7.16E-04  0.00E+00  0.00E+00  4.21E-06  7.73E-04  1.09E-02  0.89781
   1358.   7.364  3.07E-07  5.66E-05  3.92E-06  7.24E-04  0.00E+00  0.00E+00  4.23E-06  7.80E-04  1.09E-02  0.90933
   1360.   7.353  3.15E-07  5.82E-05  3.78E-06  6.99E-04  0.00E+00  0.00E+00  4.09E-06  7.57E-04  1.09E-02  0.88012
   1362.   7.342  3.28E-07  6.09E-05  3.37E-06  6.26E-04  0.00E+00  0.00E+00  3.70E-06  6.86E-04  1.09E-02  0.78926
   1364.   7.331  3.17E-07  5.90E-05  3.50E-06  6.52E-04  0.00E+00  0.00E+00  3.82E-06  7.11E-04  1.09E-02  0.82467
   1366.   7.321  2.99E-07  5.57E-05  3.88E-06  7.24E-04  0.00E+00  0.00E+00  4.18E-06  7.80E-04  1.09E-02  0.91834
   1368.   7.310  3.10E-07  5.80E-05  3.69E-06  6.90E-04  0.00E+00  0.00E+00  4.00E-06  7.48E-04  1.09E-02  0.87690
   1370.   7.299  3.14E-07  5.89E-05  3.66E-06  6.87E-04  0.00E+00  0.00E+00  3.98E-06  7.46E-04  1.09E-02  0.87555
   1372.   7.289  3.12E-07  5.87E-05  3.74E-06  7.04E-04  0.00E+00  0.00E+00  4.05E-06  7.63E-04  1.09E-02  0.89894
   1374.   7.278  3.39E-07  6.40E-05  3.01E-06  5.68E-04  0.00E+00  0.00E+00  3.35E-06  6.32E-04  1.09E-02  0.72647
   1376.   7.267  3.21E-07  6.08E-05  3.46E-06  6.56E-04  0.00E+00  0.00E+00  3.79E-06  7.17E-04  1.09E-02  0.84138
   1378.   7.257  3.17E-07  6.02E-05  3.61E-06  6.86E-04  0.00E+00  0.00E+00  3.93E-06  7.46E-04  1.10E-02  0.88160
   1380.   7.246  3.14E-07  5.98E-05  3.61E-06  6.88E-04  0.00E+00  0.00E+00  3.93E-06  7.48E-04  1.10E-02  0.88682
   1382.   7.236  3.08E-07  5.89E-05  3.68E-06  7.04E-04  0.00E+00  0.00E+00  3.99E-06  7.63E-04  1.10E-02  0.90887
   1384.   7.225  3.08E-07  5.90E-05  3.66E-06  7.01E-04  0.00E+00  0.00E+00  3.97E-06  7.60E-04  1.10E-02  0.90793
   1386.   7.215  3.15E-07  6.06E-05  3.44E-06  6.60E-04  0.00E+00  0.00E+00  3.75E-06  7.21E-04  1.10E-02  0.85708
   1388.   7.205  3.27E-07  6.30E-05  2.86E-06  5.51E-04  0.00E+00  0.00E+00  3.19E-06  6.14E-04  1.10E-02  0.71692
   1390.   7.194  3.04E-07  5.87E-05  3.57E-06  6.90E-04  0.00E+00  0.00E+00  3.87E-06  7.49E-04  1.10E-02  0.89968
   1392.   7.184  3.01E-07  5.84E-05  3.55E-06  6.89E-04  0.00E+00  0.00E+00  3.85E-06  7.47E-04  1.10E-02  0.90025
   1394.   7.174  3.23E-07  6.27E-05  2.66E-06  5.18E-04  0.00E+00  0.00E+00  2.99E-06  5.81E-04  1.10E-02  0.67856
   1396.   7.163  3.11E-07  6.07E-05  3.06E-06  5.97E-04  0.00E+00  0.00E+00  3.37E-06  6.57E-04  1.10E-02  0.78394
   1398.   7.153  3.10E-07  6.07E-05  2.97E-06  5.81E-04  0.00E+00  0.00E+00  3.28E-06  6.42E-04  1.10E-02  0.76520
1                                             RADIANCE(WATTS/CM2-STER-XXX)
0  FREQ   WAVLEN    PATH THERMAL      SURFACE EMISSION    SURFACE REFLECTED     TOTAL RADIANCE   INTEGRAL    TOTAL
  (CM-1) (MICRN)    (CM-1)   (MICRN)    (CM-1)   (MICRN)    (CM-1)   (MICRN)    (CM-1)   (MICRN)    (CM-1)   TRANS

   1400.   7.143  3.05E-07  5.97E-05  3.07E-06  6.02E-04  0.00E+00  0.00E+00  3.38E-06  6.62E-04  1.10E-02  0.79497
   1402.   7.133  2.89E-07  5.67E-05  3.49E-06  6.86E-04  0.00E+00  0.00E+00  3.78E-06  7.43E-04  1.10E-02  0.90832
   1404.   7.123  2.96E-07  5.84E-05  3.18E-06  6.27E-04  0.00E+00  0.00E+00  3.48E-06  6.86E-04  1.10E-02  0.83200
   1406.   7.112  2.92E-07  5.77E-05  3.21E-06  6.35E-04  0.00E+00  0.00E+00  3.50E-06  6.92E-04  1.11E-02  0.84448
   1408.   7.102  2.83E-07  5.60E-05  3.45E-06  6.84E-04  0.00E+00  0.00E+00  3.73E-06  7.40E-04  1.11E-02  0.91236
   1410.   7.092  2.84E-07  5.65E-05  3.36E-06  6.68E-04  0.00E+00  0.00E+00  3.65E-06  7.25E-04  1.11E-02  0.89362
   1412.   7.082  2.87E-07  5.73E-05  3.24E-06  6.46E-04  0.00E+00  0.00E+00  3.53E-06  7.04E-04  1.11E-02  0.86624
   1414.   7.072  2.80E-07  5.60E-05  3.37E-06  6.75E-04  0.00E+00  0.00E+00  3.65E-06  7.31E-04  1.11E-02  0.90628
   1416.   7.062  2.90E-07  5.82E-05  3.04E-06  6.10E-04  0.00E+00  0.00E+00  3.33E-06  6.68E-04  1.11E-02  0.82184
   1418.   7.052  2.99E-07  6.00E-05  2.62E-06  5.27E-04  0.00E+00  0.00E+00  2.92E-06  5.87E-04  1.11E-02  0.71089
   1420.   7.042  3.06E-07  6.17E-05  1.98E-06  4.00E-04  0.00E+00  0.00E+00  2.29E-06  4.61E-04  1.11E-02  0.54164
   1422.   7.032  2.84E-07  5.74E-05  3.23E-06  6.53E-04  0.00E+00  0.00E+00  3.51E-06  7.11E-04  1.11E-02  0.88668
   1424.   7.022  2.98E-07  6.05E-05  2.61E-06  5.30E-04  0.00E+00  0.00E+00  2.91E-06  5.90E-04  1.11E-02  0.72122
   1426.   7.013  2.87E-07  5.85E-05  3.23E-06  6.56E-04  0.00E+00  0.00E+00  3.51E-06  7.15E-04  1.11E-02  0.89526
   1428.   7.003  2.96E-07  6.03E-05  3.12E-06  6.37E-04  0.00E+00  0.00E+00  3.42E-06  6.97E-04  1.11E-02  0.87078
   1430.   6.993  3.07E-07  6.27E-05  2.56E-06  5.24E-04  0.00E+00  0.00E+00  2.87E-06  5.86E-04  1.11E-02  0.71818
   1432.   6.983  3.13E-07  6.43E-05  3.01E-06  6.17E-04  0.00E+00  0.00E+00  3.32E-06  6.81E-04  1.11E-02  0.84870
   1434.   6.974  3.26E-07  6.70E-05  2.95E-06  6.07E-04  0.00E+00  0.00E+00  3.28E-06  6.74E-04  1.11E-02  0.83649
   1436.   6.964  3.29E-07  6.79E-05  1.89E-06  3.90E-04  0.00E+00  0.00E+00  2.22E-06  4.58E-04  1.12E-02  0.53927
   1438.   6.954  3.31E-07  6.85E-05  2.43E-06  5.03E-04  0.00E+00  0.00E+00  2.76E-06  5.72E-04  1.12E-02  0.69793
   1440.   6.944  3.42E-07  7.08E-05  3.00E-06  6.22E-04  0.00E+00  0.00E+00  3.34E-06  6.93E-04  1.12E-02  0.86409
   1442.   6.935  3.46E-07  7.19E-05  2.98E-06  6.20E-04  0.00E+00  0.00E+00  3.33E-06  6.92E-04  1.12E-02  0.86452
   1444.   6.925  3.51E-07  7.31E-05  2.95E-06  6.16E-04  0.00E+00  0.00E+00  3.30E-06  6.89E-04  1.12E-02  0.86051
   1446.   6.916  3.55E-07  7.43E-05  2.80E-06  5.84E-04  0.00E+00  0.00E+00  3.15E-06  6.59E-04  1.12E-02  0.81887
   1448.   6.906  3.50E-07  7.35E-05  2.31E-06  4.85E-04  0.00E+00  0.00E+00  2.66E-06  5.59E-04  1.12E-02  0.68168
   1450.   6.897  3.63E-07  7.63E-05  2.85E-06  5.99E-04  0.00E+00  0.00E+00  3.21E-06  6.76E-04  1.12E-02  0.84443
   1452.   6.887  3.65E-07  7.69E-05  2.59E-06  5.46E-04  0.00E+00  0.00E+00  2.96E-06  6.23E-04  1.12E-02  0.77176
   1454.   6.878  3.67E-07  7.75E-05  2.54E-06  5.38E-04  0.00E+00  0.00E+00  2.91E-06  6.15E-04  1.12E-02  0.76177
   1456.   6.868  3.40E-07  7.21E-05  1.53E-06  3.24E-04  0.00E+00  0.00E+00  1.87E-06  3.96E-04  1.12E-02  0.45922
   1458.   6.859  3.17E-07  6.74E-05  1.11E-06  2.36E-04  0.00E+00  0.00E+00  1.43E-06  3.03E-04  1.12E-02  0.33606
   1460.   6.849  3.75E-07  7.98E-05  2.35E-06  5.02E-04  0.00E+00  0.00E+00  2.73E-06  5.82E-04  1.12E-02  0.71690
   1462.   6.840  3.87E-07  8.26E-05  2.67E-06  5.70E-04  0.00E+00  0.00E+00  3.05E-06  6.53E-04  1.12E-02  0.81643
   1464.   6.831  3.67E-07  7.88E-05  2.02E-06  4.32E-04  0.00E+00  0.00E+00  2.38E-06  5.11E-04  1.12E-02  0.62051
   1466.   6.821  3.73E-07  8.02E-05  2.18E-06  4.68E-04  0.00E+00  0.00E+00  2.55E-06  5.48E-04  1.12E-02  0.67375
   1468.   6.812  3.96E-07  8.52E-05  2.58E-06  5.57E-04  0.00E+00  0.00E+00  2.98E-06  6.42E-04  1.12E-02  0.80363
   1470.   6.803  3.95E-07  8.54E-05  2.46E-06  5.32E-04  0.00E+00  0.00E+00  2.86E-06  6.17E-04  1.12E-02  0.77012
   1472.   6.793  3.50E-07  7.58E-05  1.52E-06  3.29E-04  0.00E+00  0.00E+00  1.87E-06  4.05E-04  1.12E-02  0.47821
   1474.   6.784  3.60E-07  7.82E-05  1.63E-06  3.55E-04  0.00E+00  0.00E+00  1.99E-06  4.33E-04  1.13E-02  0.51682
   1476.   6.775  3.72E-07  8.11E-05  1.84E-06  4.01E-04  0.00E+00  0.00E+00  2.21E-06  4.82E-04  1.13E-02  0.58516
   1478.   6.766  4.12E-07  8.99E-05  2.47E-06  5.39E-04  0.00E+00  0.00E+00  2.88E-06  6.29E-04  1.13E-02  0.78891
   1480.   6.757  4.09E-07  8.97E-05  2.35E-06  5.15E-04  0.00E+00  0.00E+00  2.76E-06  6.05E-04  1.13E-02  0.75691
   1482.   6.748  4.08E-07  8.95E-05  2.30E-06  5.06E-04  0.00E+00  0.00E+00  2.71E-06  5.96E-04  1.13E-02  0.74570
   1484.   6.739  4.12E-07  9.08E-05  2.43E-06  5.35E-04  0.00E+00  0.00E+00  2.84E-06  6.26E-04  1.13E-02  0.79027
   1486.   6.729  3.86E-07  8.52E-05  2.01E-06  4.44E-04  0.00E+00  0.00E+00  2.40E-06  5.29E-04  1.13E-02  0.65742
   1488.   6.720  3.75E-07  8.30E-05  1.80E-06  3.99E-04  0.00E+00  0.00E+00  2.18E-06  4.82E-04  1.13E-02  0.59284
   1490.   6.711  3.49E-07  7.74E-05  1.42E-06  3.15E-04  0.00E+00  0.00E+00  1.77E-06  3.92E-04  1.13E-02  0.46932
   1492.   6.702  3.88E-07  8.64E-05  2.04E-06  4.53E-04  0.00E+00  0.00E+00  2.42E-06  5.40E-04  1.13E-02  0.67761
   1494.   6.693  4.10E-07  9.15E-05  2.27E-06  5.07E-04  0.00E+00  0.00E+00  2.68E-06  5.99E-04  1.13E-02  0.76036
   1496.   6.684  3.47E-07  7.77E-05  1.41E-06  3.15E-04  0.00E+00  0.00E+00  1.75E-06  3.92E-04  1.13E-02  0.47295
   1498.   6.676  3.71E-07  8.32E-05  1.59E-06  3.57E-04  0.00E+00  0.00E+00  1.96E-06  4.41E-04  1.13E-02  0.53846
1                                             RADIANCE(WATTS/CM2-STER-XXX)
0  FREQ   WAVLEN    PATH THERMAL      SURFACE EMISSION    SURFACE REFLECTED     TOTAL RADIANCE   INTEGRAL    TOTAL
  (CM-1) (MICRN)    (CM-1)   (MICRN)    (CM-1)   (MICRN)    (CM-1)   (MICRN)    (CM-1)   (MICRN)    (CM-1)   TRANS

   1500.   6.667  3.83E-07  8.61E-05  1.77E-06  3.98E-04  0.00E+00  0.00E+00  2.15E-06  4.84E-04  1.13E-02  0.60176
0INTEGRATED ABSORPTION FROM  100 TO 1500 CM-1 =    432.96 CM-1
 AVERAGE TRANSMITTANCE =0.6907

0INTEGRATED RADIANCE =  1.131E-02 WATTS CM-2 STER-1
 MINIMUM RADIANCE    =  1.233E-06 WATTS CM-2 STER-1 (CM-1)-1 AT      100.0 CM-1
 MAXIMUM RADIANCE    =  1.483E-05 WATTS CM-2 STER-1 (CM-1)-1 AT      552.0 CM-1
 BOUNDARY TEMPERATURE =     299.70 K
 BOUNDARY EMISSIVITY =       0.980
0 CARD 5 *****    0
#preIndus =355.134 W/m^2, 270
