 *****  MODTRAN3 Version 1.3  12/1/95  *****
0 CARD 1  *****T   1    3    1    0    0    0    0    0    0    0    0    0   -1   0.000  -1.00
0 CARD 2  *****    2    0    0    0    0    0     0.000     0.000     0.000     0.000     0.000
0 CARD 3  *****    20.000     0.000     0.000     0.000     0.000     0.000    0
0 CARD 4  *****       100      1500         2         2
0 PROGRAM WILL COMPUTE RADIANCE                
0 ATMOSPHERIC MODEL
          TEMPERATURE =    1     TROPICAL MODEL      
          WATER VAPOR =    1     TROPICAL MODEL      
          OZONE       =    1     TROPICAL MODEL      
                      M4 =     1 M5 =     1 M6 =     1 MDEF =     1
0 AEROSOL MODEL
          REGIME                  AEROSOL TYPE             PROFILE                  SEASON

          BOUNDARY LAYER (0-2 KM) RURAL                      5.0 KM VIS AT SEA LEVEL
          TROPOSPHERE  (2-10KM)   TROPOSPHERIC             TROPOSPHERIC             SPRING-SUMMER       
          STRATOSPHERE (10-30KM)  BACKGROUND STRATO        BACKGROUND STRATO        SPRING-SUMMER       
          UPPER ATMOS (30-100KM)  METEORIC DUST            NORMAL              
0 SLANT PATH TO SPACE
          H1    =     20.000 KM
          HMIN  =      0.000 KM
          ANGLE =      0.000 DEG
0 FREQUENCY RANGE
             IV1 =       100 CM-1  (    100.00 MICROMETERS)
             IV2 =      1500 CM-1  (      6.67 MICROMETERS)
             IDV =         2 CM-1
           IFWHM =         2 CM-1
1
  ATMOSPHERIC PROFILES

   I     Z       P       T        N2       CNTMSLF MOL SCAT     N-1     O3 (UV)  O2 (UV)
        (KM)    (MB)    (K)            (MOL/CM2 KM)   (-)       (-)  (ATM CM/KM) (ATM CM/KM)

   1     0.00 1013.000  299.7  7.622E-01 1.623E+21 9.112E-01 2.609E-04 2.612E-03 3.342E+04
   2     1.00  904.000  293.7  6.321E-01 7.602E+20 8.298E-01 2.379E-04 2.612E-03 2.927E+04
   3     2.00  805.000  287.7  5.223E-01 3.892E+20 7.543E-01 2.164E-04 2.519E-03 2.562E+04
   4     3.00  715.000  283.7  4.238E-01 9.924E+19 6.794E-01 1.951E-04 2.379E-03 2.219E+04
   5     4.00  633.000  277.0  3.484E-01 2.176E+19 6.160E-01 1.770E-04 2.192E-03 1.945E+04
   6     5.00  559.000  270.3  2.853E-01 1.012E+19 5.575E-01 1.603E-04 2.099E-03 1.703E+04
   7     6.00  492.000  263.6  2.324E-01 3.249E+18 5.032E-01 1.447E-04 2.006E-03 1.490E+04
   8     7.00  432.000  257.0  1.885E-01 9.917E+17 4.531E-01 1.303E-04 1.912E-03 1.302E+04
   9     8.00  378.000  250.3  1.522E-01 2.810E+17 4.071E-01 1.171E-04 1.819E-03 1.138E+04
  10     9.00  329.000  243.6  1.217E-01 6.471E+16 3.641E-01 1.047E-04 1.819E-03 9.902E+03
  11    10.00  286.000  237.0  9.716E-02 1.125E+16 3.253E-01 9.355E-05 1.819E-03 8.629E+03
  12    11.00  247.000  230.1  7.688E-02 1.299E+15 2.894E-01 8.322E-05 1.912E-03 7.496E+03
  13    12.00  213.000  223.6  6.054E-02 1.618E+14 2.568E-01 7.385E-05 2.006E-03 6.507E+03
  14    13.00  182.000  217.0  4.693E-02 1.456E+13 2.261E-01 6.502E-05 2.099E-03 5.608E+03
  15    14.00  156.000  210.3  3.671E-02 4.497E+12 2.000E-01 5.751E-05 2.098E-03 4.870E+03
  16    15.00  132.000  203.7  2.802E-02 1.419E+12 1.747E-01 5.024E-05 2.193E-03 4.178E+03
  17    16.00  111.000  197.0  2.118E-02 6.036E+11 1.519E-01 4.368E-05 2.192E-03 3.572E+03
  18    17.00   93.700  194.8  1.544E-02 4.110E+11 1.297E-01 3.729E-05 3.240E-03 3.000E+03
  19    18.00   78.900  198.8  1.051E-02 2.516E+11 1.070E-01 3.077E-05 5.346E-03 2.433E+03
  20    19.00   66.600  202.7  7.202E-03 1.542E+11 8.857E-02 2.547E-05 8.409E-03 1.986E+03
  21    20.00   56.500  206.7  4.985E-03 1.067E+11 7.369E-02 2.119E-05 1.031E-02 1.633E+03
  22    21.00   48.000  210.7  3.463E-03 7.699E+10 6.141E-02 1.766E-05 1.105E-02 1.348E+03
  23    22.00   40.900  214.6  2.423E-03 6.016E+10 5.138E-02 1.478E-05 1.232E-02 1.119E+03
  24    23.00   35.000  217.0  1.736E-03 4.622E+10 4.348E-02 1.250E-05 1.477E-02 9.409E+02
  25    24.00   30.000  219.2  1.250E-03 4.052E+10 3.689E-02 1.061E-05 1.585E-02 7.942E+02
  26    25.00   25.700  221.4  8.990E-04 3.007E+10 3.129E-02 8.999E-06 1.689E-02 6.705E+02
  27    30.00   12.200  232.3  1.840E-04 9.323E+09 1.416E-02 4.072E-06 1.316E-02 2.992E+02
  28    35.00    6.000  243.1  4.064E-05 2.723E+09 6.654E-03 1.913E-06 6.450E-03 1.397E+02
  29    40.00    3.050  254.0  9.620E-06 8.236E+08 3.237E-03 9.309E-07 2.426E-03 6.779E+01
  30    45.00    1.590  264.8  2.405E-06 2.475E+08 1.619E-03 4.655E-07 7.279E-04 3.385E+01
  31    50.00    0.854  270.2  6.665E-07 7.597E+07 8.520E-04 2.450E-07 2.384E-04 1.781E+01
  32    70.00    0.058  218.9  4.684E-09 3.003E+05 7.143E-05 2.054E-08 2.141E-06 1.492E+00
  33   100.00    0.000  190.7  1.532E-13 7.763E-02 4.085E-07 1.175E-10 1.633E-08 6.532E-03
1
  ATMOSPHERIC PROFILES

   I     Z       P       T      CNTMFRN     HNO3    AEROSOL 1 AEROSOL 2 AEROSOL 3 AEROSOL 4 AER1*RH   CIRRUS         RH
        (KM)    (MB)    (K)   MOL/CM2 KM ATM CM/KM   (-)       (-)       (-)       (-)       (-)       (-)      (PERCNT)

   1     0.00 1013.000  299.7  6.101E+22 4.556E-06 7.700E-01 0.000E+00 0.000E+00 0.000E+00 2.462E+00 0.000E+00 7.553E+01
   2     1.00  904.000  293.7  3.828E+22 4.945E-06 7.700E-01 0.000E+00 0.000E+00 0.000E+00 2.544E+00 0.000E+00 7.277E+01
   3     2.00  805.000  287.7  2.500E+22 5.227E-06 6.210E-02 0.000E+00 0.000E+00 0.000E+00 2.011E-01 0.000E+00 7.451E+01
   4     3.00  715.000  283.7  1.145E+22 5.374E-06 0.000E+00 3.460E-02 0.000E+00 0.000E+00 0.000E+00 0.000E+00 4.825E+01
   5     4.00  633.000  277.0  4.881E+21 5.464E-06 0.000E+00 1.850E-02 0.000E+00 0.000E+00 0.000E+00 0.000E+00 3.491E+01
   6     5.00  559.000  270.3  3.015E+21 5.436E-06 0.000E+00 9.310E-03 0.000E+00 0.000E+00 0.000E+00 0.000E+00 3.771E+01
   7     6.00  492.000  263.6  1.544E+21 5.585E-06 0.000E+00 7.710E-03 0.000E+00 0.000E+00 0.000E+00 0.000E+00 3.479E+01
   8     7.00  432.000  257.0  7.690E+20 5.710E-06 0.000E+00 6.230E-03 0.000E+00 0.000E+00 0.000E+00 0.000E+00 3.198E+01
   9     8.00  378.000  250.3  3.680E+20 5.659E-06 0.000E+00 3.370E-03 0.000E+00 0.000E+00 0.000E+00 0.000E+00 2.947E+01
  10     9.00  329.000  243.6  1.580E+20 5.571E-06 0.000E+00 1.820E-03 0.000E+00 0.000E+00 0.000E+00 0.000E+00 2.535E+01
  11    10.00  286.000  237.0  5.886E+19 5.660E-06 0.000E+00 1.140E-03 0.000E+00 0.000E+00 0.000E+00 0.000E+00 1.951E+01
  12    11.00  247.000  230.1  1.780E+19 5.845E-06 0.000E+00 0.000E+00 7.990E-04 0.000E+00 0.000E+00 0.000E+00 1.315E+01
  13    12.00  213.000  223.6  5.573E+18 6.189E-06 0.000E+00 0.000E+00 6.410E-04 0.000E+00 0.000E+00 0.000E+00 9.253E+00
  14    13.00  182.000  217.0  1.472E+18 6.240E-06 0.000E+00 0.000E+00 5.170E-04 0.000E+00 0.000E+00 0.000E+00 5.881E+00
  15    14.00  156.000  210.3  7.236E+17 6.659E-06 0.000E+00 0.000E+00 4.420E-04 0.000E+00 0.000E+00 0.000E+00 7.410E+00
  16    15.00  132.000  203.7  3.551E+17 7.896E-06 0.000E+00 0.000E+00 3.950E-04 0.000E+00 0.000E+00 0.000E+00 9.923E+00
  17    16.00  111.000  197.0  2.014E+17 1.119E-05 0.000E+00 0.000E+00 3.820E-04 0.000E+00 0.000E+00 0.000E+00 1.677E+01
  18    17.00   93.700  194.8  1.419E+17 1.699E-05 0.000E+00 0.000E+00 4.250E-04 0.000E+00 0.000E+00 0.000E+00 1.924E+01
  19    18.00   78.900  198.8  9.158E+16 2.257E-05 0.000E+00 0.000E+00 5.200E-04 0.000E+00 0.000E+00 0.000E+00 8.321E+00
  20    19.00   66.600  202.7  5.934E+16 2.808E-05 0.000E+00 0.000E+00 5.810E-04 0.000E+00 0.000E+00 0.000E+00 3.752E+00
  21    20.00   56.500  206.7  4.107E+16 3.095E-05 0.000E+00 0.000E+00 5.890E-04 0.000E+00 0.000E+00 0.000E+00 1.818E+00
  22    21.00   48.000  210.7  2.908E+16 3.034E-05 0.000E+00 0.000E+00 5.020E-04 0.000E+00 0.000E+00 0.000E+00 9.217E-01
  23    22.00   40.900  214.6  2.150E+16 2.805E-05 0.000E+00 0.000E+00 4.200E-04 0.000E+00 0.000E+00 0.000E+00 5.033E-01
  24    23.00   35.000  217.0  1.595E+16 2.496E-05 0.000E+00 0.000E+00 3.000E-04 0.000E+00 0.000E+00 0.000E+00 3.313E-01
  25    24.00   30.000  219.2  1.267E+16 2.155E-05 0.000E+00 0.000E+00 1.980E-04 0.000E+00 0.000E+00 0.000E+00 2.401E-01
  26    25.00   25.700  221.4  9.258E+15 1.756E-05 0.000E+00 0.000E+00 1.310E-04 0.000E+00 0.000E+00 0.000E+00 1.611E-01
  27    30.00   12.200  232.3  2.333E+15 5.295E-06 0.000E+00 0.000E+00 3.320E-05 0.000E+00 0.000E+00 0.000E+00 2.817E-02
  28    35.00    6.000  243.1  5.924E+14 1.091E-06 0.000E+00 0.000E+00 0.000E+00 1.640E-05 0.000E+00 0.000E+00 5.440E-03
  29    40.00    3.050  254.0  1.585E+14 1.725E-07 0.000E+00 0.000E+00 0.000E+00 7.990E-06 0.000E+00 0.000E+00 1.173E-03
  30    45.00    1.590  264.8  4.345E+13 1.959E-08 0.000E+00 0.000E+00 0.000E+00 4.010E-06 0.000E+00 0.000E+00 2.777E-04
  31    50.00    0.854  270.2  1.267E+13 4.729E-09 0.000E+00 0.000E+00 0.000E+00 2.100E-06 0.000E+00 0.000E+00 1.041E-04
  32    70.00    0.058  218.9  6.679E+10 2.336E-10 0.000E+00 0.000E+00 0.000E+00 1.600E-07 0.000E+00 0.000E+00 6.767E-04
  33   100.00    0.000  190.7  1.942E+05 1.115E-12 0.000E+00 0.000E+00 0.000E+00 9.310E-10 0.000E+00 0.000E+00 1.583E-05
1
  ATMOSPHERIC PROFILES

   I      Z       P       T      H2O      O3       CO2      CO       CH4      N2O      O2       NH3      NO       NO2      SO2
         (KM)    (MB)    (K)  (                                 ATM CM/KM                                                     )
   1     0.00 1013.000  299.7  2.36E+03 2.61E-03 3.41E+01 1.37E-02 1.55E-01 2.91E-02 1.90E+04 4.55E-05 2.73E-05 2.09E-06 2.73E-05
   2     1.00  904.000  293.7  1.62E+03 2.61E-03 3.11E+01 1.20E-02 1.41E-01 2.65E-02 1.73E+04 4.15E-05 2.49E-05 1.91E-06 2.27E-05
   3     2.00  805.000  287.7  1.16E+03 2.52E-03 2.83E+01 1.05E-02 1.28E-01 2.41E-02 1.58E+04 3.49E-05 2.26E-05 1.73E-06 1.78E-05
   4     3.00  715.000  283.7  5.84E+02 2.38E-03 2.55E+01 9.16E-03 1.15E-01 2.17E-02 1.42E+04 2.58E-05 2.04E-05 1.56E-06 1.29E-05
   5     4.00  633.000  277.0  2.73E+02 2.19E-03 2.31E+01 8.08E-03 1.05E-01 1.97E-02 1.29E+04 1.77E-05 1.85E-05 1.42E-06 8.99E-06
   6     5.00  559.000  270.3  1.86E+02 2.10E-03 2.09E+01 7.26E-03 9.47E-02 1.78E-02 1.16E+04 1.14E-05 1.67E-05 1.28E-06 6.57E-06
   7     6.00  492.000  263.6  1.06E+02 2.01E-03 1.89E+01 6.48E-03 8.55E-02 1.61E-02 1.05E+04 7.34E-06 1.51E-05 1.16E-06 4.88E-06
   8     7.00  432.000  257.0  5.84E+01 1.91E-03 1.70E+01 5.65E-03 7.69E-02 1.45E-02 9.46E+03 4.47E-06 1.36E-05 1.04E-06 3.76E-06
   9     8.00  378.000  250.3  3.11E+01 1.82E-03 1.53E+01 4.82E-03 6.90E-02 1.30E-02 8.50E+03 2.64E-06 1.22E-05 9.36E-07 2.93E-06
  10     9.00  329.000  243.6  1.49E+01 1.82E-03 1.36E+01 3.98E-03 6.16E-02 1.16E-02 7.60E+03 1.37E-06 1.09E-05 8.44E-07 2.39E-06
  11    10.00  286.000  237.0  6.22E+00 1.82E-03 1.22E+01 3.24E-03 5.48E-02 1.03E-02 6.79E+03 6.60E-07 9.75E-06 7.74E-07 1.98E-06
  12    11.00  247.000  230.1  2.11E+00 1.91E-03 1.08E+01 2.59E-03 4.84E-02 9.08E-03 6.04E+03 3.15E-07 8.68E-06 7.58E-07 1.67E-06
  13    12.00  213.000  223.6  7.45E-01 2.01E-03 9.62E+00 2.01E-03 4.27E-02 7.94E-03 5.36E+03 1.62E-07 7.70E-06 8.08E-07 1.44E-06
  14    13.00  182.000  217.0  2.24E-01 2.10E-03 8.47E+00 1.44E-03 3.72E-02 6.89E-03 4.72E+03 7.05E-08 6.76E-06 1.01E-06 1.26E-06
  15    14.00  156.000  210.3  1.24E-01 2.10E-03 7.49E+00 1.00E-03 3.25E-02 5.99E-03 4.18E+03 2.22E-08 5.90E-06 1.49E-06 1.13E-06
  16    15.00  132.000  203.7  6.98E-02 2.19E-03 6.55E+00 6.88E-04 2.80E-02 5.14E-03 3.65E+03 7.80E-09 4.94E-06 2.99E-06 1.00E-06
  17    16.00  111.000  197.0  4.55E-02 2.19E-03 5.69E+00 4.66E-04 2.40E-02 4.37E-03 3.17E+03 3.20E-09 4.07E-06 4.84E-06 8.73E-07
  18    17.00   93.700  194.8  3.76E-02 3.24E-03 4.86E+00 3.23E-04 2.01E-02 3.61E-03 2.71E+03 1.43E-09 3.27E-06 6.73E-06 6.96E-07
  19    18.00   78.900  198.8  2.94E-02 5.35E-03 4.01E+00 2.10E-04 1.63E-02 2.86E-03 2.23E+03 7.16E-10 2.57E-06 8.24E-06 5.11E-07
  20    19.00   66.600  202.7  2.30E-02 8.41E-03 3.32E+00 1.37E-04 1.31E-02 2.24E-03 1.85E+03 3.51E-10 2.16E-06 9.38E-06 3.51E-07
  21    20.00   56.500  206.7  1.91E-02 1.03E-02 2.76E+00 9.80E-05 1.05E-02 1.74E-03 1.54E+03 1.77E-10 1.88E-06 1.02E-05 2.35E-07
  22    21.00   48.000  210.7  1.63E-02 1.10E-02 2.30E+00 7.56E-05 8.32E-03 1.35E-03 1.28E+03 1.18E-10 1.70E-06 1.08E-05 1.64E-07
  23    22.00   40.900  214.6  1.44E-02 1.23E-02 1.93E+00 6.33E-05 6.53E-03 1.05E-03 1.07E+03 8.83E-11 1.58E-06 1.11E-05 1.17E-07
  24    23.00   35.000  217.0  1.26E-02 1.48E-02 1.63E+00 5.68E-05 5.18E-03 8.55E-04 9.08E+02 6.91E-11 1.56E-06 1.12E-05 8.99E-08
  25    24.00   30.000  219.2  1.18E-02 1.59E-02 1.38E+00 5.16E-05 4.12E-03 6.91E-04 7.71E+02 5.31E-11 1.66E-06 1.13E-05 7.01E-08
  26    25.00   25.700  221.4  1.02E-02 1.69E-02 1.17E+00 4.76E-05 3.30E-03 5.49E-04 6.54E+02 3.85E-11 2.14E-06 1.17E-05 5.47E-08
  27    30.00   12.200  232.3  5.66E-03 1.32E-02 5.31E-01 2.82E-05 1.29E-03 2.00E-04 2.96E+02 8.98E-12 3.47E-06 8.72E-06 1.90E-08
  28    35.00    6.000  243.1  3.06E-03 6.45E-03 2.49E-01 1.65E-05 4.96E-04 6.17E-05 1.39E+02 1.21E-12 4.75E-06 4.84E-06 7.71E-09
  29    40.00    3.050  254.0  1.68E-03 2.43E-03 1.21E-01 1.00E-05 1.82E-04 1.46E-05 6.76E+01 9.51E-14 3.62E-06 1.30E-06 4.40E-09
  30    45.00    1.590  264.8  9.22E-04 7.28E-04 6.07E-02 6.45E-06 5.87E-05 2.57E-06 3.38E+01 4.82E-15 1.89E-06 1.86E-07 3.40E-09
  31    50.00    0.854  270.2  5.11E-04 2.38E-04 3.19E-02 4.34E-06 1.79E-05 4.05E-07 1.78E+01 6.07E-16 8.77E-07 3.77E-08 3.03E-09
  32    70.00    0.058  218.9  3.21E-05 2.14E-06 2.68E-03 1.38E-06 1.07E-06 8.20E-09 1.49E+00 1.83E-17 8.21E-08 1.65E-09 3.08E-10
  33   100.00    0.000  190.7  1.63E-08 1.63E-08 9.05E-06 6.96E-07 4.90E-09 1.36E-11 6.53E-03 6.04E-20 8.49E-08 6.94E-12 1.46E-14
1
  ATMOSPHERIC PROFILES

   I      Z       P       T     CFC-11   CFC-12   CFC-13   CFC-14   CFC-22   CFC-113  CFC-114  CFC-115  CLONO2    HNO4    CHCL2F 
                                 CCL4     N2O5  
         (KM)    (MB)    (K)  (                                 ATM CM/KM                                                     )
   1     0.00 1013.000  299.7  1.27E-05 2.19E-05 9.11E-14 9.11E-14 5.46E-06 1.73E-06 1.09E-06 9.11E-14 5.24E-07 3.95E-08 9.11E-14
                               1.18E-05 2.20E-11
   2     1.00  904.000  293.7  1.16E-05 1.99E-05 8.29E-14 8.29E-14 4.97E-06 1.58E-06 9.95E-07 8.29E-14 4.25E-07 1.77E-07 8.29E-14
                               1.08E-05 7.91E-11
   3     2.00  805.000  287.7  1.06E-05 1.81E-05 7.54E-14 7.54E-14 4.52E-06 1.43E-06 9.05E-07 7.54E-14 3.40E-07 2.89E-07 7.54E-14
                               9.80E-06 1.26E-10
   4     3.00  715.000  283.7  9.51E-06 1.63E-05 6.79E-14 6.79E-14 4.06E-06 1.29E-06 8.15E-07 6.79E-14 2.64E-07 3.76E-07 6.79E-14
                               8.83E-06 1.61E-10
   5     4.00  633.000  277.0  8.62E-06 1.48E-05 6.16E-14 6.16E-14 3.68E-06 1.17E-06 7.39E-07 6.16E-14 2.01E-07 4.46E-07 6.16E-14
                               8.00E-06 1.90E-10
   6     5.00  559.000  270.3  7.80E-06 1.34E-05 5.57E-14 5.57E-14 3.33E-06 1.06E-06 6.69E-07 5.57E-14 1.53E-07 1.01E-06 5.57E-14
                               7.23E-06 2.01E-10
   7     6.00  492.000  263.6  7.04E-06 1.21E-05 5.03E-14 5.03E-14 3.00E-06 9.55E-07 6.03E-07 5.03E-14 1.13E-07 1.46E-06 5.03E-14
                               6.51E-06 2.07E-10
   8     7.00  432.000  257.0  6.34E-06 1.09E-05 4.53E-14 4.53E-14 2.70E-06 8.60E-07 5.43E-07 4.53E-14 7.90E-08 1.81E-06 4.53E-14
                               5.86E-06 2.10E-10
   9     8.00  378.000  250.3  5.70E-06 9.76E-06 4.07E-14 4.07E-14 2.43E-06 7.73E-07 4.88E-07 4.07E-14 5.04E-08 2.07E-06 4.07E-14
                               5.25E-06 2.10E-10
  10     9.00  329.000  243.6  5.09E-06 8.72E-06 3.64E-14 3.64E-14 2.17E-06 6.91E-07 4.37E-07 3.64E-14 4.40E-08 1.79E-06 3.64E-14
                               4.69E-06 2.10E-10
  11    10.00  286.000  237.0  4.54E-06 7.79E-06 3.25E-14 3.25E-14 1.94E-06 6.16E-07 3.90E-07 3.25E-14 3.82E-08 1.54E-06 3.25E-14
                               4.19E-06 2.07E-10
  12    11.00  247.000  230.1  4.03E-06 6.92E-06 2.89E-14 2.89E-14 1.72E-06 5.47E-07 3.47E-07 2.89E-14 3.31E-08 1.32E-06 2.89E-14
                               3.73E-06 2.02E-10
  13    12.00  213.000  223.6  3.57E-06 6.13E-06 2.57E-14 2.57E-14 1.53E-06 4.85E-07 3.08E-07 2.57E-14 2.85E-08 1.12E-06 2.57E-14
                               3.31E-06 1.94E-10
  14    13.00  182.000  217.0  3.05E-06 5.32E-06 2.26E-14 2.26E-14 1.33E-06 4.19E-07 2.68E-07 2.26E-14 1.81E-07 1.28E-06 2.26E-14
                               2.82E-06 9.96E-09
  15    14.00  156.000  210.3  2.62E-06 4.64E-06 2.00E-14 2.00E-14 1.17E-06 3.64E-07 2.35E-07 2.00E-14 2.98E-07 1.39E-06 2.00E-14
                               2.42E-06 1.75E-08
  16    15.00  132.000  203.7  2.22E-06 3.99E-06 1.75E-14 1.75E-14 1.01E-06 3.12E-07 2.03E-07 1.75E-14 3.81E-07 1.44E-06 1.75E-14
                               2.04E-06 2.28E-08
  17    16.00  111.000  197.0  1.87E-06 3.42E-06 1.52E-14 1.52E-14 8.68E-07 2.66E-07 1.75E-07 1.52E-14 4.36E-07 1.44E-06 1.52E-14
                               1.72E-06 2.64E-08
  18    17.00   93.700  194.8  1.46E-06 2.78E-06 1.30E-14 1.30E-14 7.21E-07 2.14E-07 1.45E-07 1.30E-14 1.32E-06 1.85E-06 1.30E-14
                               1.32E-06 1.14E-07
  19    18.00   78.900  198.8  1.09E-06 2.19E-06 1.07E-14 1.07E-14 5.78E-07 1.66E-07 1.16E-07 1.07E-14 1.86E-06 2.03E-06 1.07E-14
                               9.69E-07 1.69E-07
  20    19.00   66.600  202.7  8.05E-07 1.72E-06 8.85E-15 8.85E-15 4.65E-07 1.29E-07 9.32E-08 8.85E-15 2.19E-06 2.10E-06 8.85E-15
                               7.03E-07 2.02E-07
  21    20.00   56.500  206.7  5.91E-07 1.35E-06 7.36E-15 7.36E-15 3.75E-07 1.00E-07 7.51E-08 7.36E-15 2.36E-06 2.10E-06 7.36E-15
                               5.02E-07 2.20E-07
  22    21.00   48.000  210.7  4.21E-07 1.05E-06 6.14E-15 6.14E-15 3.00E-07 7.60E-08 5.99E-08 6.14E-15 2.82E-06 2.16E-06 6.14E-15
                               3.51E-07 2.54E-07
  23    22.00   40.900  214.6  2.93E-07 8.11E-07 5.13E-15 5.13E-15 2.41E-07 5.73E-08 4.78E-08 5.13E-15 3.08E-06 2.15E-06 5.13E-15
                               2.37E-07 2.72E-07
  24    23.00   35.000  217.0  1.98E-07 6.30E-07 4.35E-15 4.35E-15 1.95E-07 4.32E-08 3.85E-08 4.35E-15 3.22E-06 2.11E-06 4.35E-15
                               1.52E-07 2.80E-07
  25    24.00   30.000  219.2  1.25E-07 4.87E-07 3.69E-15 3.69E-15 1.59E-07 3.21E-08 3.10E-08 3.69E-15 3.24E-06 2.04E-06 3.69E-15
                               8.85E-08 2.81E-07
  26    25.00   25.700  221.4  8.53E-08 3.72E-07 3.13E-15 3.13E-15 1.28E-07 2.38E-08 2.49E-08 3.13E-15 3.04E-06 1.82E-06 3.13E-15
                               5.89E-08 2.41E-07
  27    30.00   12.200  232.3  5.52E-09 8.33E-08 1.41E-15 1.41E-15 4.28E-08 4.12E-09 7.97E-09 1.41E-15 1.61E-06 7.22E-07 1.41E-15
                               2.48E-09 7.81E-08
  28    35.00    6.000  243.1  1.32E-10 1.42E-08 6.65E-16 6.65E-16 1.38E-08 4.77E-10 2.43E-09 6.65E-16 3.48E-07 9.77E-08 6.65E-16
                               2.63E-11 7.19E-09
  29    40.00    3.050  254.0  5.98E-13 1.97E-09 3.23E-16 3.23E-16 4.50E-09 3.98E-11 7.50E-10 3.23E-16 1.38E-08 3.22E-09 3.23E-16
                               1.28E-14 6.89E-11
  30    45.00    1.590  264.8  1.49E-14 3.45E-10 1.62E-16 1.62E-16 1.68E-09 5.20E-12 2.62E-10 1.62E-16 2.72E-10 1.41E-10 1.62E-16
                               9.01E-17 6.37E-13
  31    50.00    0.854  270.2  5.08E-16 7.25E-11 8.51E-17 8.51E-17 7.48E-10 8.43E-13 1.06E-10 8.51E-17 3.97E-12 6.50E-12 8.51E-17
                               9.31E-19 5.35E-15
  32    70.00    0.058  218.9  3.63E-21 2.79E-13 7.14E-18 7.14E-18 5.13E-11 1.25E-15 4.18E-12 7.14E-18 5.16E-19 2.29E-16 7.14E-18
                               7.05E-26 5.85E-23
  33   100.00    0.000  190.7  1.27E-30 1.01E-18 4.08E-20 4.08E-20 7.31E-14 5.35E-22 8.70E-16 4.08E-20 3.30E-35 1.36E-31 4.08E-20
                               2.08E-38 0.00E+00


 CASE 3A: GIVEN H1,H2=SPACE,ANGLE



 SLANT PATH PARAMETERS IN STANDARD FORM

          H1      =     20.000 KM
          H2      =    100.000 KM
          ANGLE   =      0.000 DEG
          PHI     =    180.000 DEG
          HMIN    =     20.000 KM
          LEN     =          0
1CALCULATION OF THE REFRACTED PATH THROUGH THE ATMOSPHERE


  I       ALTITUDE        THETA  DRANGE    RANGE    DBETA     BETA     PHI     DBEND  BENDING    PBAR    TBAR   RHOBAR
      FROM       TO
      (KM)      (KM)      (DEG)    (KM)     (KM)    (DEG)    (DEG)    (DEG)    (DEG)    (DEG)    (MB)    (K)  (GM CM-3)

          H1 TO H2

  1   20.000   21.000    0.000    1.000    1.000    0.000    0.000  180.000    0.000    0.000   52.264  208.63 8.71E-05
  2   21.000   22.000    0.000    1.000    2.000    0.000    0.000  180.000    0.000    0.000   44.461  212.59 7.27E-05
  3   22.000   23.000    0.000    1.000    3.000    0.000    0.000  180.000    0.000    0.000   37.955  215.76 6.11E-05
  4   23.000   24.000    0.000    1.000    4.000    0.000    0.000  180.000    0.000    0.000   32.504  218.07 5.18E-05
  5   24.000   25.000    0.000    1.000    5.000    0.000    0.000  180.000    0.000    0.000   27.854  220.27 4.40E-05
  6   25.000   30.000    0.000    5.000   10.000    0.000    0.000  180.000    0.000    0.000   19.003  226.09 2.79E-05
  7   30.000   35.000    0.000    5.000   15.000    0.000    0.000  180.000    0.000    0.000    9.123  236.99 1.28E-05
  8   35.000   40.000    0.000    5.000   20.000    0.000    0.000  180.000    0.000    0.000    4.536  247.86 6.13E-06
  9   40.000   45.000    0.000    5.000   25.000    0.000    0.000  180.000    0.000    0.000    2.325  258.74 3.02E-06
 10   45.000   50.000    0.000    5.000   30.000    0.000    0.000  180.000    0.000    0.000    1.223  267.20 1.54E-06
 11   50.000   70.000    0.000   20.000   50.000    0.000    0.000  180.000    0.000    0.000    0.445  253.37 4.07E-07
 12   70.000  100.000    0.000   30.000   80.000    0.000    0.000  180.000    0.000    0.000    0.029  213.36 1.78E-08




1CUMULATIVE ABSORBER AMOUNTS FOR THE PATH FROM H1 TO Z

  J     Z        TBAR     HNO3        O3 UV      CNTMSLF1   CNTMSLF2    CNTMFRN      O2
       (KM)       (K)   (ATM CM)    (ATM CM)    (MOL CM-2)  (MOL CM-2)  (MOL CM-2)(MOL CM-2)

  1   21.000   208.63   3.064E-05   1.068E-02   9.104E+10   2.209E+11   3.473E+16   1.486E+03
  2   22.000   212.59   5.982E-05   2.236E-02   1.593E+11   3.790E+11   5.983E+16   2.716E+03
  3   23.000   215.76   8.630E-05   3.591E-02   2.121E+11   4.969E+11   7.842E+16   3.743E+03
  4   24.000   218.07   1.095E-04   5.122E-02   2.555E+11   5.906E+11   9.266E+16   4.609E+03
  5   25.000   220.27   1.290E-04   6.759E-02   2.905E+11   6.643E+11   1.035E+17   5.339E+03
  6   30.000   226.09   1.801E-04   1.423E-01   3.791E+11   8.363E+11   1.287E+17   7.640E+03
  7   35.000   236.99   1.934E-04   1.894E-01   4.059E+11   8.803E+11   1.350E+17   8.687E+03
  8   40.000   247.86   1.959E-04   2.099E-01   4.138E+11   8.909E+11   1.367E+17   9.185E+03
  9   45.000   258.74   1.963E-04   2.170E-01   4.162E+11   8.934E+11   1.371E+17   9.429E+03
 10   50.000   267.20   1.963E-04   2.192E-01   4.169E+11   8.940E+11   1.372E+17   9.554E+03
 11   70.000   253.37   1.964E-04   2.202E-01   4.172E+11   8.943E+11   1.373E+17   9.685E+03
 12  100.000   213.36   1.964E-04   2.202E-01   4.172E+11   8.943E+11   1.373E+17   9.694E+03



1 J     Z       N2 CONT    MOL SCAT       AER 1       AER 2       AER 3       AER 4       CIRRUS
       (KM)

  1   21.000   4.178E-03   6.736E-02   0.000E+00   0.000E+00   5.443E-04   0.000E+00   0.000E+00
  2   22.000   7.090E-03   1.236E-01   0.000E+00   0.000E+00   1.004E-03   0.000E+00   0.000E+00
  3   23.000   9.150E-03   1.709E-01   0.000E+00   0.000E+00   1.361E-03   0.000E+00   0.000E+00
  4   24.000   1.063E-02   2.110E-01   0.000E+00   0.000E+00   1.606E-03   0.000E+00   0.000E+00
  5   25.000   1.169E-02   2.450E-01   0.000E+00   0.000E+00   1.768E-03   0.000E+00   0.000E+00
  6   30.000   1.395E-02   3.531E-01   0.000E+00   0.000E+00   2.125E-03   0.000E+00   0.000E+00
  7   35.000   1.442E-02   4.028E-01   0.000E+00   0.000E+00   2.208E-03   4.100E-05   0.000E+00
  8   40.000   1.453E-02   4.265E-01   0.000E+00   0.000E+00   2.208E-03   9.948E-05   0.000E+00
  9   45.000   1.456E-02   4.381E-01   0.000E+00   0.000E+00   2.208E-03   1.283E-04   0.000E+00
 10   50.000   1.456E-02   4.441E-01   0.000E+00   0.000E+00   2.208E-03   1.431E-04   0.000E+00
 11   70.000   1.457E-02   4.504E-01   0.000E+00   0.000E+00   2.208E-03   1.582E-04   0.000E+00
 12  100.000   1.457E-02   4.508E-01   0.000E+00   0.000E+00   2.208E-03   1.591E-04   0.000E+00



1  J    Z       H2O       O3        CO2       CO        CH4       N2O       O2        NH3       NO        NO2       SO2
      (KM)    (                                                      ATM CM                                             )

   1   21.00  1.77E-02  1.07E-02  2.52E+00  8.63E-05  9.36E-03  1.54E-03  1.41E+03  1.46E-10  1.79E-06  1.05E-05  1.97E-07
   2   22.00  3.30E-02  2.24E-02  4.63E+00  1.56E-04  1.67E-02  2.73E-03  2.58E+03  2.48E-10  3.42E-06  2.15E-05  3.36E-07
   3   23.00  4.64E-02  3.59E-02  6.41E+00  2.16E-04  2.26E-02  3.68E-03  3.57E+03  3.26E-10  4.99E-06  3.26E-05  4.39E-07
   4   24.00  5.86E-02  5.12E-02  7.91E+00  2.70E-04  2.72E-02  4.45E-03  4.41E+03  3.87E-10  6.61E-06  4.39E-05  5.19E-07
   5   25.00  6.96E-02  6.76E-02  9.18E+00  3.19E-04  3.09E-02  5.07E-03  5.12E+03  4.32E-10  8.51E-06  5.53E-05  5.81E-07
   6   30.00  1.08E-01  1.42E-01  1.32E+01  5.05E-04  4.16E-02  6.80E-03  7.37E+03  5.34E-10  2.25E-05  1.06E-04  7.50E-07
   7   35.00  1.29E-01  1.89E-01  1.51E+01  6.14E-04  4.58E-02  7.39E-03  8.41E+03  5.53E-10  4.31E-05  1.39E-04  8.12E-07
   8   40.00  1.41E-01  2.10E-01  1.60E+01  6.79E-04  4.73E-02  7.55E-03  8.91E+03  5.55E-10  6.39E-05  1.52E-04  8.42E-07
   9   45.00  1.47E-01  2.17E-01  1.64E+01  7.19E-04  4.79E-02  7.58E-03  9.15E+03  5.56E-10  7.72E-05  1.55E-04  8.61E-07
  10   50.00  1.50E-01  2.19E-01  1.66E+01  7.46E-04  4.80E-02  7.59E-03  9.28E+03  5.56E-10  8.38E-05  1.56E-04  8.77E-07
  11   70.00  1.54E-01  2.20E-01  1.69E+01  7.98E-04  4.82E-02  7.59E-03  9.41E+03  5.56E-10  9.05E-05  1.56E-04  9.01E-07
  12  100.00  1.54E-01  2.20E-01  1.69E+01  8.28E-04  4.82E-02  7.59E-03  9.42E+03  5.56E-10  9.30E-05  1.56E-04  9.02E-07



1  J    Z      CFC-11    CFC-12    CFC-13    CFC-14    CFC-22    CFC-113   CFC-114   CFC-115   CLONO2     HNO4     CHCL2F 
                CCL4      N2O5  
      (KM)    (                                                   ATM CM                                                )

   1   21.00  5.01E-07  1.20E-06  6.73E-15  6.73E-15  3.36E-07  8.75E-08  6.72E-08  6.73E-15  2.59E-06  2.13E-06  6.73E-15
              4.22E-07  2.37E-07
   2   22.00  8.55E-07  2.12E-06  1.24E-14  1.24E-14  6.06E-07  1.54E-07  1.21E-07  1.24E-14  5.54E-06  4.28E-06  1.24E-14
              7.12E-07  5.01E-07
   3   23.00  1.10E-06  2.84E-06  1.71E-14  1.71E-14  8.23E-07  2.04E-07  1.64E-07  1.71E-14  8.69E-06  6.41E-06  1.71E-14
              9.03E-07  7.77E-07
   4   24.00  1.26E-06  3.39E-06  2.11E-14  2.11E-14  1.00E-06  2.41E-07  1.98E-07  2.11E-14  1.19E-05  8.48E-06  2.11E-14
              1.02E-06  1.06E-06
   5   25.00  1.36E-06  3.82E-06  2.45E-14  2.45E-14  1.14E-06  2.69E-07  2.26E-07  2.45E-14  1.51E-05  1.04E-05  2.45E-14
              1.09E-06  1.32E-06
   6   30.00  1.51E-06  4.78E-06  3.53E-14  3.53E-14  1.53E-06  3.25E-07  3.01E-07  3.53E-14  2.63E-05  1.63E-05  3.53E-14
              1.18E-06  2.04E-06
   7   35.00  1.51E-06  4.98E-06  4.02E-14  4.02E-14  1.66E-06  3.33E-07  3.24E-07  4.02E-14  3.04E-05  1.79E-05  4.02E-14
              1.19E-06  2.19E-06
   8   40.00  1.51E-06  5.01E-06  4.26E-14  4.26E-14  1.70E-06  3.34E-07  3.31E-07  4.26E-14  3.10E-05  1.80E-05  4.26E-14
              1.19E-06  2.20E-06
   9   45.00  1.51E-06  5.01E-06  4.38E-14  4.38E-14  1.71E-06  3.34E-07  3.33E-07  4.38E-14  3.10E-05  1.80E-05  4.38E-14
              1.19E-06  2.20E-06
  10   50.00  1.51E-06  5.01E-06  4.44E-14  4.44E-14  1.72E-06  3.34E-07  3.34E-07  4.44E-14  3.10E-05  1.80E-05  4.44E-14
              1.19E-06  2.20E-06
  11   70.00  1.51E-06  5.02E-06  4.50E-14  4.50E-14  1.73E-06  3.34E-07  3.35E-07  4.50E-14  3.10E-05  1.80E-05  4.50E-14
              1.19E-06  2.20E-06
  12  100.00  1.51E-06  5.02E-06  4.51E-14  4.51E-14  1.73E-06  3.34E-07  3.35E-07  4.51E-14  3.10E-05  1.80E-05  4.51E-14
              1.19E-06  2.20E-06


0SUMMARY OF THE GEOMETRY CALCULATION

          H1      =     20.000 KM
          H2      =    100.000 KM
          ANGLE   =      0.000 DEG
          RANGE   =     80.000 KM
          BETA    =      0.000 DEG
          PHI     =    180.000 DEG
          HMIN    =     20.000 KM
          BENDING =      0.000 DEG
          LEN     =          0




1EQUIVALENT SEA LEVEL TOTAL ABSORBER AMOUNTS

                 HNO3      O3 UV       CNTMSLF1    CNTMSLF2   CNTMFRN
               (ATM CM)   (ATM CM)     (MOL CM-2)  (MOL CM-2)  (MOL CM-2)  (MOL CM-2)

             1.964E-04   2.202E-01   4.172E+11   8.943E+11   1.373E+17


              N2 CONT    MOL SCAT       AER 1       AER 2       AER 3       AER 4     CIRRUS      MEAN RH
                                                                                                  (PRCNT)

             1.457E-02   4.508E-01   0.000E+00   0.000E+00   2.208E-03   1.591E-04   0.000E+00        0.00


                 H2O        O3          CO2         CO          CH4         N2O          O2
               (                                        ATM CM                            )

             1.541E-01   2.202E-01   1.689E+01   8.278E-04   4.817E-02   7.591E-03   9.415E+03

                 NH3        NO          NO2         SO2
                 (               ATM CM               )

             5.555E-10   9.301E-05   1.560E-04   9.019E-07

             CFC-11      CFC-12      CFC-13      CFC-14      CFC-22      CFC-113     CFC-114
                 (                                      ATM CM                            )

             1.513E-06   5.015E-06   4.505E-14   4.505E-14   1.725E-06   3.342E-07   3.348E-07

             CFC-115     CLONO2       HNO4       CHCL2F       CCL4        N2O5  
                 (                                      ATM CM                            )

             4.505E-14   3.098E-05   1.804E-05   4.505E-14   1.185E-06   2.197E-06
1                                             RADIANCE(WATTS/CM2-STER-XXX)
0  FREQ   WAVLEN    PATH THERMAL      SURFACE EMISSION    SURFACE REFLECTED     TOTAL RADIANCE   INTEGRAL    TOTAL
  (CM-1) (MICRN)    (CM-1)   (MICRN)    (CM-1)   (MICRN)    (CM-1)   (MICRN)    (CM-1)   (MICRN)    (CM-1)   TRANS

    100. 100.000  2.12E-07  2.12E-07  0.00E+00  0.00E+00  0.00E+00  0.00E+00  2.12E-07  2.12E-07  2.12E-07  0.83040
    102.  98.039  1.35E-07  1.40E-07  0.00E+00  0.00E+00  0.00E+00  0.00E+00  1.35E-07  1.40E-07  4.82E-07  0.89481
    104.  96.154  1.13E-07  1.22E-07  0.00E+00  0.00E+00  0.00E+00  0.00E+00  1.13E-07  1.22E-07  7.08E-07  0.91647
    106.  94.340  2.02E-07  2.27E-07  0.00E+00  0.00E+00  0.00E+00  0.00E+00  2.02E-07  2.27E-07  1.11E-06  0.85240
    108.  92.593  6.20E-08  7.23E-08  0.00E+00  0.00E+00  0.00E+00  0.00E+00  6.20E-08  7.23E-08  1.24E-06  0.95701
    110.  90.909  8.01E-08  9.69E-08  0.00E+00  0.00E+00  0.00E+00  0.00E+00  8.01E-08  9.69E-08  1.40E-06  0.94588
    112.  89.286  7.91E-08  9.92E-08  0.00E+00  0.00E+00  0.00E+00  0.00E+00  7.91E-08  9.92E-08  1.55E-06  0.94659
    114.  87.719  8.68E-09  1.13E-08  0.00E+00  0.00E+00  0.00E+00  0.00E+00  8.68E-09  1.13E-08  1.57E-06  0.99481
    116.  86.207  1.98E-08  2.67E-08  0.00E+00  0.00E+00  0.00E+00  0.00E+00  1.98E-08  2.67E-08  1.61E-06  0.98818
    118.  84.746  6.91E-08  9.62E-08  0.00E+00  0.00E+00  0.00E+00  0.00E+00  6.91E-08  9.62E-08  1.75E-06  0.95810
    120.  83.333  1.39E-07  2.00E-07  0.00E+00  0.00E+00  0.00E+00  0.00E+00  1.39E-07  2.00E-07  2.03E-06  0.91699
    122.  81.967  2.34E-07  3.49E-07  0.00E+00  0.00E+00  0.00E+00  0.00E+00  2.34E-07  3.49E-07  2.50E-06  0.86298
    124.  80.645  3.91E-08  6.02E-08  0.00E+00  0.00E+00  0.00E+00  0.00E+00  3.91E-08  6.02E-08  2.57E-06  0.97841
    126.  79.365  1.79E-07  2.85E-07  0.00E+00  0.00E+00  0.00E+00  0.00E+00  1.79E-07  2.85E-07  2.93E-06  0.90117
    128.  78.125  1.67E-07  2.73E-07  0.00E+00  0.00E+00  0.00E+00  0.00E+00  1.67E-07  2.73E-07  3.27E-06  0.90825
    130.  76.923  3.50E-08  5.91E-08  0.00E+00  0.00E+00  0.00E+00  0.00E+00  3.50E-08  5.91E-08  3.34E-06  0.98201
    132.  75.758  2.90E-07  5.06E-07  0.00E+00  0.00E+00  0.00E+00  0.00E+00  2.90E-07  5.06E-07  3.92E-06  0.85052
    134.  74.627  1.51E-07  2.71E-07  0.00E+00  0.00E+00  0.00E+00  0.00E+00  1.51E-07  2.71E-07  4.22E-06  0.92231
    136.  73.529  1.86E-08  3.43E-08  0.00E+00  0.00E+00  0.00E+00  0.00E+00  1.86E-08  3.43E-08  4.26E-06  0.99137
    138.  72.464  1.14E-07  2.17E-07  0.00E+00  0.00E+00  0.00E+00  0.00E+00  1.14E-07  2.17E-07  4.48E-06  0.94523
    140.  71.429  2.90E-07  5.68E-07  0.00E+00  0.00E+00  0.00E+00  0.00E+00  2.90E-07  5.68E-07  5.06E-06  0.86167
    142.  70.423  9.51E-08  1.92E-07  0.00E+00  0.00E+00  0.00E+00  0.00E+00  9.51E-08  1.92E-07  5.25E-06  0.95528
    144.  69.444  6.25E-09  1.30E-08  0.00E+00  0.00E+00  0.00E+00  0.00E+00  6.25E-09  1.30E-08  5.27E-06  0.99732
    146.  68.493  1.17E-08  2.48E-08  0.00E+00  0.00E+00  0.00E+00  0.00E+00  1.17E-08  2.48E-08  5.29E-06  0.99507
    148.  67.568  1.52E-07  3.32E-07  0.00E+00  0.00E+00  0.00E+00  0.00E+00  1.52E-07  3.32E-07  5.59E-06  0.93364
    150.  66.667  4.31E-07  9.69E-07  0.00E+00  0.00E+00  0.00E+00  0.00E+00  4.31E-07  9.69E-07  6.45E-06  0.81356
    152.  65.789  3.73E-07  8.63E-07  0.00E+00  0.00E+00  0.00E+00  0.00E+00  3.73E-07  8.63E-07  7.20E-06  0.84075
    154.  64.935  1.29E-07  3.05E-07  0.00E+00  0.00E+00  0.00E+00  0.00E+00  1.29E-07  3.05E-07  7.46E-06  0.94640
    156.  64.103  8.52E-08  2.07E-07  0.00E+00  0.00E+00  0.00E+00  0.00E+00  8.52E-08  2.07E-07  7.63E-06  0.96681
    158.  63.291  2.23E-07  5.56E-07  0.00E+00  0.00E+00  0.00E+00  0.00E+00  2.23E-07  5.56E-07  8.07E-06  0.91081
    160.  62.500  4.34E-08  1.11E-07  0.00E+00  0.00E+00  0.00E+00  0.00E+00  4.34E-08  1.11E-07  8.16E-06  0.98359
    162.  61.728  3.74E-08  9.82E-08  0.00E+00  0.00E+00  0.00E+00  0.00E+00  3.74E-08  9.82E-08  8.24E-06  0.98595
    164.  60.976  6.11E-09  1.64E-08  0.00E+00  0.00E+00  0.00E+00  0.00E+00  6.11E-09  1.64E-08  8.25E-06  0.99783
    166.  60.241  9.60E-08  2.65E-07  0.00E+00  0.00E+00  0.00E+00  0.00E+00  9.60E-08  2.65E-07  8.44E-06  0.96485
    168.  59.524  7.99E-08  2.25E-07  0.00E+00  0.00E+00  0.00E+00  0.00E+00  7.99E-08  2.25E-07  8.60E-06  0.97087
    170.  58.824  4.12E-07  1.19E-06  0.00E+00  0.00E+00  0.00E+00  0.00E+00  4.12E-07  1.19E-06  9.42E-06  0.84903
    172.  58.140  6.51E-08  1.93E-07  0.00E+00  0.00E+00  0.00E+00  0.00E+00  6.51E-08  1.93E-07  9.56E-06  0.97712
    174.  57.471  2.20E-07  6.66E-07  0.00E+00  0.00E+00  0.00E+00  0.00E+00  2.20E-07  6.66E-07  9.99E-06  0.92235
    176.  56.818  1.65E-07  5.12E-07  0.00E+00  0.00E+00  0.00E+00  0.00E+00  1.65E-07  5.12E-07  1.03E-05  0.94284
    178.  56.180  2.98E-07  9.43E-07  0.00E+00  0.00E+00  0.00E+00  0.00E+00  2.98E-07  9.43E-07  1.09E-05  0.89821
    180.  55.556  9.23E-08  2.99E-07  0.00E+00  0.00E+00  0.00E+00  0.00E+00  9.23E-08  2.99E-07  1.11E-05  0.96970
    182.  54.945  9.64E-08  3.19E-07  0.00E+00  0.00E+00  0.00E+00  0.00E+00  9.64E-08  3.19E-07  1.13E-05  0.96811
    184.  54.348  3.26E-08  1.10E-07  0.00E+00  0.00E+00  0.00E+00  0.00E+00  3.26E-08  1.10E-07  1.14E-05  0.98943
    186.  53.763  1.21E-08  4.20E-08  0.00E+00  0.00E+00  0.00E+00  0.00E+00  1.21E-08  4.20E-08  1.14E-05  0.99634
    188.  53.191  2.23E-07  7.90E-07  0.00E+00  0.00E+00  0.00E+00  0.00E+00  2.23E-07  7.90E-07  1.18E-05  0.92844
    190.  52.632  7.93E-09  2.86E-08  0.00E+00  0.00E+00  0.00E+00  0.00E+00  7.93E-09  2.86E-08  1.19E-05  0.99756
    192.  52.083  4.28E-08  1.58E-07  0.00E+00  0.00E+00  0.00E+00  0.00E+00  4.28E-08  1.58E-07  1.19E-05  0.98692
    194.  51.546  1.36E-07  5.11E-07  0.00E+00  0.00E+00  0.00E+00  0.00E+00  1.36E-07  5.11E-07  1.22E-05  0.95852
    196.  51.020  8.26E-08  3.17E-07  0.00E+00  0.00E+00  0.00E+00  0.00E+00  8.26E-08  3.17E-07  1.24E-05  0.97564
    198.  50.505  4.58E-08  1.80E-07  0.00E+00  0.00E+00  0.00E+00  0.00E+00  4.58E-08  1.80E-07  1.25E-05  0.98679
1                                             RADIANCE(WATTS/CM2-STER-XXX)
0  FREQ   WAVLEN    PATH THERMAL      SURFACE EMISSION    SURFACE REFLECTED     TOTAL RADIANCE   INTEGRAL    TOTAL
  (CM-1) (MICRN)    (CM-1)   (MICRN)    (CM-1)   (MICRN)    (CM-1)   (MICRN)    (CM-1)   (MICRN)    (CM-1)   TRANS

    200.  50.000  5.62E-08  2.25E-07  0.00E+00  0.00E+00  0.00E+00  0.00E+00  5.62E-08  2.25E-07  1.26E-05  0.98430
    202.  49.505  6.81E-07  2.78E-06  0.00E+00  0.00E+00  0.00E+00  0.00E+00  6.81E-07  2.78E-06  1.39E-05  0.80005
    204.  49.020  3.54E-07  1.47E-06  0.00E+00  0.00E+00  0.00E+00  0.00E+00  3.54E-07  1.47E-06  1.46E-05  0.89601
    206.  48.544  2.11E-08  8.93E-08  0.00E+00  0.00E+00  0.00E+00  0.00E+00  2.11E-08  8.93E-08  1.47E-05  0.99425
    208.  48.077  4.31E-07  1.86E-06  0.00E+00  0.00E+00  0.00E+00  0.00E+00  4.31E-07  1.86E-06  1.56E-05  0.87746
    210.  47.619  4.24E-08  1.87E-07  0.00E+00  0.00E+00  0.00E+00  0.00E+00  4.24E-08  1.87E-07  1.56E-05  0.98850
    212.  47.170  7.03E-08  3.16E-07  0.00E+00  0.00E+00  0.00E+00  0.00E+00  7.03E-08  3.16E-07  1.58E-05  0.98109
    214.  46.729  2.31E-07  1.06E-06  0.00E+00  0.00E+00  0.00E+00  0.00E+00  2.31E-07  1.06E-06  1.62E-05  0.93743
    216.  46.296  6.88E-08  3.21E-07  0.00E+00  0.00E+00  0.00E+00  0.00E+00  6.88E-08  3.21E-07  1.64E-05  0.98175
    218.  45.872  6.82E-09  3.24E-08  0.00E+00  0.00E+00  0.00E+00  0.00E+00  6.82E-09  3.24E-08  1.64E-05  0.99831
    220.  45.455  1.76E-08  8.51E-08  0.00E+00  0.00E+00  0.00E+00  0.00E+00  1.76E-08  8.51E-08  1.64E-05  0.99558
    222.  45.045  3.33E-07  1.64E-06  0.00E+00  0.00E+00  0.00E+00  0.00E+00  3.33E-07  1.64E-06  1.71E-05  0.91211
    224.  44.643  1.54E-07  7.74E-07  0.00E+00  0.00E+00  0.00E+00  0.00E+00  1.54E-07  7.74E-07  1.74E-05  0.96024
    226.  44.248  3.26E-07  1.66E-06  0.00E+00  0.00E+00  0.00E+00  0.00E+00  3.26E-07  1.66E-06  1.81E-05  0.91612
    228.  43.860  4.69E-07  2.44E-06  0.00E+00  0.00E+00  0.00E+00  0.00E+00  4.69E-07  2.44E-06  1.90E-05  0.87952
    230.  43.478  3.85E-08  2.04E-07  0.00E+00  0.00E+00  0.00E+00  0.00E+00  3.85E-08  2.04E-07  1.91E-05  0.99059
    232.  43.103  7.97E-08  4.29E-07  0.00E+00  0.00E+00  0.00E+00  0.00E+00  7.97E-08  4.29E-07  1.92E-05  0.98094
    234.  42.735  2.55E-08  1.39E-07  0.00E+00  0.00E+00  0.00E+00  0.00E+00  2.55E-08  1.39E-07  1.93E-05  0.99389
    236.  42.373  4.67E-09  2.60E-08  0.00E+00  0.00E+00  0.00E+00  0.00E+00  4.67E-09  2.60E-08  1.93E-05  0.99896
    238.  42.017  2.48E-09  1.41E-08  0.00E+00  0.00E+00  0.00E+00  0.00E+00  2.48E-09  1.41E-08  1.93E-05  0.99941
    240.  41.667  2.48E-09  1.43E-08  0.00E+00  0.00E+00  0.00E+00  0.00E+00  2.48E-09  1.43E-08  1.93E-05  0.99942
    242.  41.322  4.93E-09  2.89E-08  0.00E+00  0.00E+00  0.00E+00  0.00E+00  4.93E-09  2.89E-08  1.93E-05  0.99889
    244.  40.984  1.80E-07  1.07E-06  0.00E+00  0.00E+00  0.00E+00  0.00E+00  1.80E-07  1.07E-06  1.97E-05  0.95792
    246.  40.650  3.09E-07  1.87E-06  0.00E+00  0.00E+00  0.00E+00  0.00E+00  3.09E-07  1.87E-06  2.03E-05  0.92690
    248.  40.323  3.83E-07  2.35E-06  0.00E+00  0.00E+00  0.00E+00  0.00E+00  3.83E-07  2.35E-06  2.10E-05  0.91004
    250.  40.000  4.70E-08  2.94E-07  0.00E+00  0.00E+00  0.00E+00  0.00E+00  4.70E-08  2.94E-07  2.11E-05  0.98969
    252.  39.683  4.75E-08  3.01E-07  0.00E+00  0.00E+00  0.00E+00  0.00E+00  4.75E-08  3.01E-07  2.12E-05  0.98970
    254.  39.370  7.16E-07  4.62E-06  0.00E+00  0.00E+00  0.00E+00  0.00E+00  7.16E-07  4.62E-06  2.27E-05  0.83398
    256.  39.063  4.50E-08  2.95E-07  0.00E+00  0.00E+00  0.00E+00  0.00E+00  4.50E-08  2.95E-07  2.28E-05  0.99043
    258.  38.760  9.21E-09  6.13E-08  0.00E+00  0.00E+00  0.00E+00  0.00E+00  9.21E-09  6.13E-08  2.28E-05  0.99810
    260.  38.462  2.34E-09  1.58E-08  0.00E+00  0.00E+00  0.00E+00  0.00E+00  2.34E-09  1.58E-08  2.28E-05  0.99949
    262.  38.168  1.25E-08  8.56E-08  0.00E+00  0.00E+00  0.00E+00  0.00E+00  1.25E-08  8.56E-08  2.28E-05  0.99744
    264.  37.879  1.54E-08  1.07E-07  0.00E+00  0.00E+00  0.00E+00  0.00E+00  1.54E-08  1.07E-07  2.28E-05  0.99689
    266.  37.594  1.56E-07  1.11E-06  0.00E+00  0.00E+00  0.00E+00  0.00E+00  1.56E-07  1.11E-06  2.32E-05  0.96598
    268.  37.313  1.89E-08  1.36E-07  0.00E+00  0.00E+00  0.00E+00  0.00E+00  1.89E-08  1.36E-07  2.32E-05  0.99631
    270.  37.037  2.07E-09  1.51E-08  0.00E+00  0.00E+00  0.00E+00  0.00E+00  2.07E-09  1.51E-08  2.32E-05  0.99957
    272.  36.765  1.48E-08  1.09E-07  0.00E+00  0.00E+00  0.00E+00  0.00E+00  1.48E-08  1.09E-07  2.32E-05  0.99718
    274.  36.496  1.49E-08  1.12E-07  0.00E+00  0.00E+00  0.00E+00  0.00E+00  1.49E-08  1.12E-07  2.33E-05  0.99713
    276.  36.232  1.87E-07  1.43E-06  0.00E+00  0.00E+00  0.00E+00  0.00E+00  1.87E-07  1.43E-06  2.36E-05  0.96079
    278.  35.971  4.24E-07  3.28E-06  0.00E+00  0.00E+00  0.00E+00  0.00E+00  4.24E-07  3.28E-06  2.45E-05  0.91014
    280.  35.714  2.78E-07  2.18E-06  0.00E+00  0.00E+00  0.00E+00  0.00E+00  2.78E-07  2.18E-06  2.50E-05  0.94194
    282.  35.461  3.80E-07  3.02E-06  0.00E+00  0.00E+00  0.00E+00  0.00E+00  3.80E-07  3.02E-06  2.58E-05  0.92036
    284.  35.211  1.86E-08  1.50E-07  0.00E+00  0.00E+00  0.00E+00  0.00E+00  1.86E-08  1.50E-07  2.58E-05  0.99649
    286.  34.965  1.55E-08  1.27E-07  0.00E+00  0.00E+00  0.00E+00  0.00E+00  1.55E-08  1.27E-07  2.59E-05  0.99720
    288.  34.722  1.32E-07  1.09E-06  0.00E+00  0.00E+00  0.00E+00  0.00E+00  1.32E-07  1.09E-06  2.61E-05  0.97298
    290.  34.483  1.60E-07  1.35E-06  0.00E+00  0.00E+00  0.00E+00  0.00E+00  1.60E-07  1.35E-06  2.64E-05  0.96741
    292.  34.247  2.67E-08  2.28E-07  0.00E+00  0.00E+00  0.00E+00  0.00E+00  2.67E-08  2.28E-07  2.65E-05  0.99486
    294.  34.014  1.82E-09  1.58E-08  0.00E+00  0.00E+00  0.00E+00  0.00E+00  1.82E-09  1.58E-08  2.65E-05  0.99965
    296.  33.784  1.11E-08  9.70E-08  0.00E+00  0.00E+00  0.00E+00  0.00E+00  1.11E-08  9.70E-08  2.65E-05  0.99798
    298.  33.557  4.52E-08  4.01E-07  0.00E+00  0.00E+00  0.00E+00  0.00E+00  4.52E-08  4.01E-07  2.66E-05  0.99158
1                                             RADIANCE(WATTS/CM2-STER-XXX)
0  FREQ   WAVLEN    PATH THERMAL      SURFACE EMISSION    SURFACE REFLECTED     TOTAL RADIANCE   INTEGRAL    TOTAL
  (CM-1) (MICRN)    (CM-1)   (MICRN)    (CM-1)   (MICRN)    (CM-1)   (MICRN)    (CM-1)   (MICRN)    (CM-1)   TRANS

    300.  33.333  2.61E-08  2.35E-07  0.00E+00  0.00E+00  0.00E+00  0.00E+00  2.61E-08  2.35E-07  2.67E-05  0.99534
    302.  33.113  3.73E-07  3.40E-06  0.00E+00  0.00E+00  0.00E+00  0.00E+00  3.73E-07  3.40E-06  2.74E-05  0.92593
    304.  32.895  2.35E-07  2.18E-06  0.00E+00  0.00E+00  0.00E+00  0.00E+00  2.35E-07  2.18E-06  2.79E-05  0.95319
    306.  32.680  1.36E-08  1.27E-07  0.00E+00  0.00E+00  0.00E+00  0.00E+00  1.36E-08  1.27E-07  2.79E-05  0.99766
    308.  32.468  1.32E-08  1.25E-07  0.00E+00  0.00E+00  0.00E+00  0.00E+00  1.32E-08  1.25E-07  2.79E-05  0.99762
    310.  32.258  1.26E-08  1.21E-07  0.00E+00  0.00E+00  0.00E+00  0.00E+00  1.26E-08  1.21E-07  2.80E-05  0.99771
    312.  32.051  8.35E-09  8.12E-08  0.00E+00  0.00E+00  0.00E+00  0.00E+00  8.35E-09  8.12E-08  2.80E-05  0.99864
    314.  31.847  7.99E-08  7.88E-07  0.00E+00  0.00E+00  0.00E+00  0.00E+00  7.99E-08  7.88E-07  2.81E-05  0.98489
    316.  31.646  7.90E-08  7.88E-07  0.00E+00  0.00E+00  0.00E+00  0.00E+00  7.90E-08  7.88E-07  2.83E-05  0.98503
    318.  31.447  1.47E-09  1.48E-08  0.00E+00  0.00E+00  0.00E+00  0.00E+00  1.47E-09  1.48E-08  2.83E-05  0.99973
    320.  31.250  6.19E-09  6.34E-08  0.00E+00  0.00E+00  0.00E+00  0.00E+00  6.19E-09  6.34E-08  2.83E-05  0.99897
    322.  31.056  1.08E-08  1.12E-07  0.00E+00  0.00E+00  0.00E+00  0.00E+00  1.08E-08  1.12E-07  2.83E-05  0.99812
    324.  30.864  3.40E-07  3.57E-06  0.00E+00  0.00E+00  0.00E+00  0.00E+00  3.40E-07  3.57E-06  2.90E-05  0.93511
    326.  30.675  1.03E-08  1.10E-07  0.00E+00  0.00E+00  0.00E+00  0.00E+00  1.03E-08  1.10E-07  2.90E-05  0.99824
    328.  30.488  3.17E-07  3.41E-06  0.00E+00  0.00E+00  0.00E+00  0.00E+00  3.17E-07  3.41E-06  2.97E-05  0.94018
    330.  30.303  3.20E-09  3.49E-08  0.00E+00  0.00E+00  0.00E+00  0.00E+00  3.20E-09  3.49E-08  2.97E-05  0.99945
    332.  30.120  2.12E-09  2.33E-08  0.00E+00  0.00E+00  0.00E+00  0.00E+00  2.12E-09  2.33E-08  2.97E-05  0.99964
    334.  29.940  1.23E-07  1.37E-06  0.00E+00  0.00E+00  0.00E+00  0.00E+00  1.23E-07  1.37E-06  2.99E-05  0.97708
    336.  29.762  1.38E-07  1.55E-06  0.00E+00  0.00E+00  0.00E+00  0.00E+00  1.38E-07  1.55E-06  3.02E-05  0.97458
    338.  29.586  1.80E-09  2.05E-08  0.00E+00  0.00E+00  0.00E+00  0.00E+00  1.80E-09  2.05E-08  3.02E-05  0.99970
    340.  29.412  5.46E-08  6.31E-07  0.00E+00  0.00E+00  0.00E+00  0.00E+00  5.46E-08  6.31E-07  3.03E-05  0.99027
    342.  29.240  7.77E-08  9.09E-07  0.00E+00  0.00E+00  0.00E+00  0.00E+00  7.77E-08  9.09E-07  3.05E-05  0.98627
    344.  29.070  2.56E-08  3.03E-07  0.00E+00  0.00E+00  0.00E+00  0.00E+00  2.56E-08  3.03E-07  3.05E-05  0.99558
    346.  28.902  2.68E-08  3.21E-07  0.00E+00  0.00E+00  0.00E+00  0.00E+00  2.68E-08  3.21E-07  3.06E-05  0.99550
    348.  28.736  7.29E-09  8.83E-08  0.00E+00  0.00E+00  0.00E+00  0.00E+00  7.29E-09  8.83E-08  3.06E-05  0.99886
    350.  28.571  1.24E-07  1.52E-06  0.00E+00  0.00E+00  0.00E+00  0.00E+00  1.24E-07  1.52E-06  3.08E-05  0.97742
    352.  28.409  1.69E-07  2.10E-06  0.00E+00  0.00E+00  0.00E+00  0.00E+00  1.69E-07  2.10E-06  3.12E-05  0.96963
    354.  28.249  1.41E-07  1.77E-06  0.00E+00  0.00E+00  0.00E+00  0.00E+00  1.41E-07  1.77E-06  3.15E-05  0.97511
    356.  28.090  1.10E-07  1.39E-06  0.00E+00  0.00E+00  0.00E+00  0.00E+00  1.10E-07  1.39E-06  3.17E-05  0.98034
    358.  27.933  1.11E-07  1.42E-06  0.00E+00  0.00E+00  0.00E+00  0.00E+00  1.11E-07  1.42E-06  3.19E-05  0.98054
    360.  27.778  1.66E-09  2.16E-08  0.00E+00  0.00E+00  0.00E+00  0.00E+00  1.66E-09  2.16E-08  3.19E-05  0.99973
    362.  27.624  3.89E-09  5.10E-08  0.00E+00  0.00E+00  0.00E+00  0.00E+00  3.89E-09  5.10E-08  3.19E-05  0.99940
    364.  27.473  3.36E-09  4.45E-08  0.00E+00  0.00E+00  0.00E+00  0.00E+00  3.36E-09  4.45E-08  3.19E-05  0.99948
    366.  27.322  6.89E-10  9.23E-09  0.00E+00  0.00E+00  0.00E+00  0.00E+00  6.89E-10  9.23E-09  3.19E-05  0.99989
    368.  27.174  6.20E-09  8.40E-08  0.00E+00  0.00E+00  0.00E+00  0.00E+00  6.20E-09  8.40E-08  3.19E-05  0.99907
    370.  27.027  1.00E-07  1.37E-06  0.00E+00  0.00E+00  0.00E+00  0.00E+00  1.00E-07  1.37E-06  3.21E-05  0.98253
    372.  26.882  2.45E-09  3.39E-08  0.00E+00  0.00E+00  0.00E+00  0.00E+00  2.45E-09  3.39E-08  3.21E-05  0.99963
    374.  26.738  1.10E-07  1.54E-06  0.00E+00  0.00E+00  0.00E+00  0.00E+00  1.10E-07  1.54E-06  3.24E-05  0.98104
    376.  26.596  1.05E-07  1.48E-06  0.00E+00  0.00E+00  0.00E+00  0.00E+00  1.05E-07  1.48E-06  3.26E-05  0.98220
    378.  26.455  5.13E-09  7.33E-08  0.00E+00  0.00E+00  0.00E+00  0.00E+00  5.13E-09  7.33E-08  3.26E-05  0.99921
    380.  26.316  5.54E-09  7.99E-08  0.00E+00  0.00E+00  0.00E+00  0.00E+00  5.54E-09  7.99E-08  3.26E-05  0.99915
    382.  26.178  1.47E-09  2.14E-08  0.00E+00  0.00E+00  0.00E+00  0.00E+00  1.47E-09  2.14E-08  3.26E-05  0.99978
    384.  26.042  6.38E-08  9.41E-07  0.00E+00  0.00E+00  0.00E+00  0.00E+00  6.38E-08  9.41E-07  3.27E-05  0.98954
    386.  25.907  1.00E-07  1.49E-06  0.00E+00  0.00E+00  0.00E+00  0.00E+00  1.00E-07  1.49E-06  3.29E-05  0.98281
    388.  25.773  5.48E-10  8.26E-09  0.00E+00  0.00E+00  0.00E+00  0.00E+00  5.48E-10  8.26E-09  3.29E-05  0.99991
    390.  25.641  1.16E-09  1.77E-08  0.00E+00  0.00E+00  0.00E+00  0.00E+00  1.16E-09  1.77E-08  3.29E-05  0.99983
    392.  25.510  5.95E-10  9.14E-09  0.00E+00  0.00E+00  0.00E+00  0.00E+00  5.95E-10  9.14E-09  3.29E-05  0.99991
    394.  25.381  4.47E-08  6.94E-07  0.00E+00  0.00E+00  0.00E+00  0.00E+00  4.47E-08  6.94E-07  3.30E-05  0.99240
    396.  25.253  1.16E-07  1.82E-06  0.00E+00  0.00E+00  0.00E+00  0.00E+00  1.16E-07  1.82E-06  3.32E-05  0.98050
    398.  25.126  1.13E-07  1.80E-06  0.00E+00  0.00E+00  0.00E+00  0.00E+00  1.13E-07  1.80E-06  3.35E-05  0.98151
1                                             RADIANCE(WATTS/CM2-STER-XXX)
0  FREQ   WAVLEN    PATH THERMAL      SURFACE EMISSION    SURFACE REFLECTED     TOTAL RADIANCE   INTEGRAL    TOTAL
  (CM-1) (MICRN)    (CM-1)   (MICRN)    (CM-1)   (MICRN)    (CM-1)   (MICRN)    (CM-1)   (MICRN)    (CM-1)   TRANS

    400.  25.000  7.63E-08  1.22E-06  0.00E+00  0.00E+00  0.00E+00  0.00E+00  7.63E-08  1.22E-06  3.36E-05  0.98806
    402.  24.876  5.00E-10  8.07E-09  0.00E+00  0.00E+00  0.00E+00  0.00E+00  5.00E-10  8.07E-09  3.36E-05  0.99993
    404.  24.752  1.73E-09  2.83E-08  0.00E+00  0.00E+00  0.00E+00  0.00E+00  1.73E-09  2.83E-08  3.36E-05  0.99975
    406.  24.631  1.72E-09  2.83E-08  0.00E+00  0.00E+00  0.00E+00  0.00E+00  1.72E-09  2.83E-08  3.36E-05  0.99975
    408.  24.510  3.69E-10  6.14E-09  0.00E+00  0.00E+00  0.00E+00  0.00E+00  3.69E-10  6.14E-09  3.36E-05  0.99995
    410.  24.390  4.30E-10  7.22E-09  0.00E+00  0.00E+00  0.00E+00  0.00E+00  4.30E-10  7.22E-09  3.36E-05  0.99994
    412.  24.272  5.26E-10  8.93E-09  0.00E+00  0.00E+00  0.00E+00  0.00E+00  5.26E-10  8.93E-09  3.36E-05  0.99992
    414.  24.155  1.62E-09  2.78E-08  0.00E+00  0.00E+00  0.00E+00  0.00E+00  1.62E-09  2.78E-08  3.36E-05  0.99976
    416.  24.038  2.57E-09  4.45E-08  0.00E+00  0.00E+00  0.00E+00  0.00E+00  2.57E-09  4.45E-08  3.36E-05  0.99962
    418.  23.923  1.38E-07  2.42E-06  0.00E+00  0.00E+00  0.00E+00  0.00E+00  1.38E-07  2.42E-06  3.39E-05  0.97676
    420.  23.810  1.09E-07  1.93E-06  0.00E+00  0.00E+00  0.00E+00  0.00E+00  1.09E-07  1.93E-06  3.41E-05  0.98120
    422.  23.697  1.96E-08  3.48E-07  0.00E+00  0.00E+00  0.00E+00  0.00E+00  1.96E-08  3.48E-07  3.42E-05  0.99707
    424.  23.585  2.81E-08  5.06E-07  0.00E+00  0.00E+00  0.00E+00  0.00E+00  2.81E-08  5.06E-07  3.42E-05  0.99585
    426.  23.474  2.51E-08  4.56E-07  0.00E+00  0.00E+00  0.00E+00  0.00E+00  2.51E-08  4.56E-07  3.43E-05  0.99621
    428.  23.364  3.39E-09  6.21E-08  0.00E+00  0.00E+00  0.00E+00  0.00E+00  3.39E-09  6.21E-08  3.43E-05  0.99946
    430.  23.256  2.02E-08  3.74E-07  0.00E+00  0.00E+00  0.00E+00  0.00E+00  2.02E-08  3.74E-07  3.43E-05  0.99673
    432.  23.148  2.07E-08  3.86E-07  0.00E+00  0.00E+00  0.00E+00  0.00E+00  2.07E-08  3.86E-07  3.44E-05  0.99665
    434.  23.041  7.60E-09  1.43E-07  0.00E+00  0.00E+00  0.00E+00  0.00E+00  7.60E-09  1.43E-07  3.44E-05  0.99883
    436.  22.936  2.34E-08  4.44E-07  0.00E+00  0.00E+00  0.00E+00  0.00E+00  2.34E-08  4.44E-07  3.44E-05  0.99641
    438.  22.831  6.52E-09  1.25E-07  0.00E+00  0.00E+00  0.00E+00  0.00E+00  6.52E-09  1.25E-07  3.44E-05  0.99892
    440.  22.727  6.45E-09  1.25E-07  0.00E+00  0.00E+00  0.00E+00  0.00E+00  6.45E-09  1.25E-07  3.45E-05  0.99893
    442.  22.624  8.42E-08  1.64E-06  0.00E+00  0.00E+00  0.00E+00  0.00E+00  8.42E-08  1.64E-06  3.46E-05  0.98634
    444.  22.523  2.21E-08  4.36E-07  0.00E+00  0.00E+00  0.00E+00  0.00E+00  2.21E-08  4.36E-07  3.47E-05  0.99663
    446.  22.422  1.53E-08  3.05E-07  0.00E+00  0.00E+00  0.00E+00  0.00E+00  1.53E-08  3.05E-07  3.47E-05  0.99774
    448.  22.321  9.53E-09  1.91E-07  0.00E+00  0.00E+00  0.00E+00  0.00E+00  9.53E-09  1.91E-07  3.47E-05  0.99857
    450.  22.222  4.49E-09  9.09E-08  0.00E+00  0.00E+00  0.00E+00  0.00E+00  4.49E-09  9.09E-08  3.47E-05  0.99927
    452.  22.124  1.40E-08  2.87E-07  0.00E+00  0.00E+00  0.00E+00  0.00E+00  1.40E-08  2.87E-07  3.48E-05  0.99794
    454.  22.026  1.16E-08  2.38E-07  0.00E+00  0.00E+00  0.00E+00  0.00E+00  1.16E-08  2.38E-07  3.48E-05  0.99830
    456.  21.930  3.04E-08  6.32E-07  0.00E+00  0.00E+00  0.00E+00  0.00E+00  3.04E-08  6.32E-07  3.48E-05  0.99513
    458.  21.834  2.11E-07  4.42E-06  0.00E+00  0.00E+00  0.00E+00  0.00E+00  2.11E-07  4.42E-06  3.53E-05  0.96490
    460.  21.739  5.81E-09  1.23E-07  0.00E+00  0.00E+00  0.00E+00  0.00E+00  5.81E-09  1.23E-07  3.53E-05  0.99918
    462.  21.645  6.10E-09  1.30E-07  0.00E+00  0.00E+00  0.00E+00  0.00E+00  6.10E-09  1.30E-07  3.53E-05  0.99913
    464.  21.552  2.68E-09  5.78E-08  0.00E+00  0.00E+00  0.00E+00  0.00E+00  2.68E-09  5.78E-08  3.53E-05  0.99956
    466.  21.459  5.59E-09  1.21E-07  0.00E+00  0.00E+00  0.00E+00  0.00E+00  5.59E-09  1.21E-07  3.53E-05  0.99909
    468.  21.368  1.51E-08  3.31E-07  0.00E+00  0.00E+00  0.00E+00  0.00E+00  1.51E-08  3.31E-07  3.53E-05  0.99784
    470.  21.277  9.91E-09  2.19E-07  0.00E+00  0.00E+00  0.00E+00  0.00E+00  9.91E-09  2.19E-07  3.54E-05  0.99842
    472.  21.186  8.23E-08  1.83E-06  0.00E+00  0.00E+00  0.00E+00  0.00E+00  8.23E-08  1.83E-06  3.55E-05  0.98661
    474.  21.097  3.39E-08  7.61E-07  0.00E+00  0.00E+00  0.00E+00  0.00E+00  3.39E-08  7.61E-07  3.56E-05  0.99447
    476.  21.008  1.25E-08  2.84E-07  0.00E+00  0.00E+00  0.00E+00  0.00E+00  1.25E-08  2.84E-07  3.56E-05  0.99804
    478.  20.921  8.56E-09  1.96E-07  0.00E+00  0.00E+00  0.00E+00  0.00E+00  8.56E-09  1.96E-07  3.56E-05  0.99856
    480.  20.833  8.38E-09  1.93E-07  0.00E+00  0.00E+00  0.00E+00  0.00E+00  8.38E-09  1.93E-07  3.56E-05  0.99862
    482.  20.747  7.22E-09  1.68E-07  0.00E+00  0.00E+00  0.00E+00  0.00E+00  7.22E-09  1.68E-07  3.57E-05  0.99881
    484.  20.661  4.89E-08  1.14E-06  0.00E+00  0.00E+00  0.00E+00  0.00E+00  4.89E-08  1.14E-06  3.58E-05  0.99182
    486.  20.576  7.72E-09  1.82E-07  0.00E+00  0.00E+00  0.00E+00  0.00E+00  7.72E-09  1.82E-07  3.58E-05  0.99884
    488.  20.492  3.37E-09  8.03E-08  0.00E+00  0.00E+00  0.00E+00  0.00E+00  3.37E-09  8.03E-08  3.58E-05  0.99944
    490.  20.408  2.74E-09  6.59E-08  0.00E+00  0.00E+00  0.00E+00  0.00E+00  2.74E-09  6.59E-08  3.58E-05  0.99956
    492.  20.325  2.19E-08  5.31E-07  0.00E+00  0.00E+00  0.00E+00  0.00E+00  2.19E-08  5.31E-07  3.58E-05  0.99674
    494.  20.243  1.95E-09  4.75E-08  0.00E+00  0.00E+00  0.00E+00  0.00E+00  1.95E-09  4.75E-08  3.58E-05  0.99971
    496.  20.161  1.02E-09  2.52E-08  0.00E+00  0.00E+00  0.00E+00  0.00E+00  1.02E-09  2.52E-08  3.58E-05  0.99984
    498.  20.080  7.36E-10  1.83E-08  0.00E+00  0.00E+00  0.00E+00  0.00E+00  7.36E-10  1.83E-08  3.58E-05  0.99989
1                                             RADIANCE(WATTS/CM2-STER-XXX)
0  FREQ   WAVLEN    PATH THERMAL      SURFACE EMISSION    SURFACE REFLECTED     TOTAL RADIANCE   INTEGRAL    TOTAL
  (CM-1) (MICRN)    (CM-1)   (MICRN)    (CM-1)   (MICRN)    (CM-1)   (MICRN)    (CM-1)   (MICRN)    (CM-1)   TRANS

    500.  20.000  8.17E-10  2.04E-08  0.00E+00  0.00E+00  0.00E+00  0.00E+00  8.17E-10  2.04E-08  3.58E-05  0.99988
    502.  19.920  3.17E-08  7.98E-07  0.00E+00  0.00E+00  0.00E+00  0.00E+00  3.17E-08  7.98E-07  3.59E-05  0.99486
    504.  19.841  1.49E-09  3.79E-08  0.00E+00  0.00E+00  0.00E+00  0.00E+00  1.49E-09  3.79E-08  3.59E-05  0.99980
    506.  19.763  1.81E-08  4.65E-07  0.00E+00  0.00E+00  0.00E+00  0.00E+00  1.81E-08  4.65E-07  3.59E-05  0.99697
    508.  19.685  1.84E-08  4.74E-07  0.00E+00  0.00E+00  0.00E+00  0.00E+00  1.84E-08  4.74E-07  3.60E-05  0.99695
    510.  19.608  2.14E-09  5.56E-08  0.00E+00  0.00E+00  0.00E+00  0.00E+00  2.14E-09  5.56E-08  3.60E-05  0.99972
    512.  19.531  2.17E-09  5.69E-08  0.00E+00  0.00E+00  0.00E+00  0.00E+00  2.17E-09  5.69E-08  3.60E-05  0.99970
    514.  19.455  1.08E-09  2.85E-08  0.00E+00  0.00E+00  0.00E+00  0.00E+00  1.08E-09  2.85E-08  3.60E-05  0.99986
    516.  19.380  1.15E-08  3.07E-07  0.00E+00  0.00E+00  0.00E+00  0.00E+00  1.15E-08  3.07E-07  3.60E-05  0.99825
    518.  19.305  2.86E-08  7.67E-07  0.00E+00  0.00E+00  0.00E+00  0.00E+00  2.86E-08  7.67E-07  3.61E-05  0.99555
    520.  19.231  2.14E-08  5.80E-07  0.00E+00  0.00E+00  0.00E+00  0.00E+00  2.14E-08  5.80E-07  3.61E-05  0.99683
    522.  19.157  9.15E-10  2.49E-08  0.00E+00  0.00E+00  0.00E+00  0.00E+00  9.15E-10  2.49E-08  3.61E-05  0.99987
    524.  19.084  1.62E-09  4.45E-08  0.00E+00  0.00E+00  0.00E+00  0.00E+00  1.62E-09  4.45E-08  3.61E-05  0.99977
    526.  19.011  3.03E-08  8.37E-07  0.00E+00  0.00E+00  0.00E+00  0.00E+00  3.03E-08  8.37E-07  3.62E-05  0.99488
    528.  18.939  1.55E-09  4.32E-08  0.00E+00  0.00E+00  0.00E+00  0.00E+00  1.55E-09  4.32E-08  3.62E-05  0.99978
    530.  18.868  2.12E-09  5.96E-08  0.00E+00  0.00E+00  0.00E+00  0.00E+00  2.12E-09  5.96E-08  3.62E-05  0.99970
    532.  18.797  2.18E-09  6.18E-08  0.00E+00  0.00E+00  0.00E+00  0.00E+00  2.18E-09  6.18E-08  3.62E-05  0.99969
    534.  18.727  1.75E-09  4.99E-08  0.00E+00  0.00E+00  0.00E+00  0.00E+00  1.75E-09  4.99E-08  3.62E-05  0.99975
    536.  18.657  1.26E-08  3.61E-07  0.00E+00  0.00E+00  0.00E+00  0.00E+00  1.26E-08  3.61E-07  3.62E-05  0.99805
    538.  18.587  1.89E-09  5.47E-08  0.00E+00  0.00E+00  0.00E+00  0.00E+00  1.89E-09  5.47E-08  3.62E-05  0.99973
    540.  18.519  3.47E-09  1.01E-07  0.00E+00  0.00E+00  0.00E+00  0.00E+00  3.47E-09  1.01E-07  3.62E-05  0.99948
    542.  18.450  2.90E-09  8.53E-08  0.00E+00  0.00E+00  0.00E+00  0.00E+00  2.90E-09  8.53E-08  3.62E-05  0.99956
    544.  18.382  2.55E-08  7.54E-07  0.00E+00  0.00E+00  0.00E+00  0.00E+00  2.55E-08  7.54E-07  3.63E-05  0.99619
    546.  18.315  3.43E-08  1.02E-06  0.00E+00  0.00E+00  0.00E+00  0.00E+00  3.43E-08  1.02E-06  3.64E-05  0.99477
    548.  18.248  6.69E-09  2.01E-07  0.00E+00  0.00E+00  0.00E+00  0.00E+00  6.69E-09  2.01E-07  3.64E-05  0.99904
    550.  18.182  9.84E-09  2.98E-07  0.00E+00  0.00E+00  0.00E+00  0.00E+00  9.84E-09  2.98E-07  3.64E-05  0.99854
    552.  18.116  3.01E-09  9.19E-08  0.00E+00  0.00E+00  0.00E+00  0.00E+00  3.01E-09  9.19E-08  3.64E-05  0.99954
    554.  18.051  6.24E-09  1.92E-07  0.00E+00  0.00E+00  0.00E+00  0.00E+00  6.24E-09  1.92E-07  3.64E-05  0.99903
    556.  17.986  8.55E-09  2.64E-07  0.00E+00  0.00E+00  0.00E+00  0.00E+00  8.55E-09  2.64E-07  3.64E-05  0.99866
    558.  17.921  6.09E-09  1.90E-07  0.00E+00  0.00E+00  0.00E+00  0.00E+00  6.09E-09  1.90E-07  3.64E-05  0.99904
    560.  17.857  7.42E-09  2.33E-07  0.00E+00  0.00E+00  0.00E+00  0.00E+00  7.42E-09  2.33E-07  3.64E-05  0.99878
    562.  17.794  1.10E-08  3.48E-07  0.00E+00  0.00E+00  0.00E+00  0.00E+00  1.10E-08  3.48E-07  3.65E-05  0.99820
    564.  17.730  1.53E-08  4.85E-07  0.00E+00  0.00E+00  0.00E+00  0.00E+00  1.53E-08  4.85E-07  3.65E-05  0.99750
    566.  17.668  2.20E-08  7.04E-07  0.00E+00  0.00E+00  0.00E+00  0.00E+00  2.20E-08  7.04E-07  3.65E-05  0.99637
    568.  17.606  3.09E-08  9.97E-07  0.00E+00  0.00E+00  0.00E+00  0.00E+00  3.09E-08  9.97E-07  3.66E-05  0.99496
    570.  17.544  3.39E-08  1.10E-06  0.00E+00  0.00E+00  0.00E+00  0.00E+00  3.39E-08  1.10E-06  3.67E-05  0.99440
    572.  17.483  2.84E-08  9.28E-07  0.00E+00  0.00E+00  0.00E+00  0.00E+00  2.84E-08  9.28E-07  3.67E-05  0.99537
    574.  17.422  3.71E-08  1.22E-06  0.00E+00  0.00E+00  0.00E+00  0.00E+00  3.71E-08  1.22E-06  3.68E-05  0.99391
    576.  17.361  6.51E-08  2.16E-06  0.00E+00  0.00E+00  0.00E+00  0.00E+00  6.51E-08  2.16E-06  3.69E-05  0.98936
    578.  17.301  6.52E-08  2.18E-06  0.00E+00  0.00E+00  0.00E+00  0.00E+00  6.52E-08  2.18E-06  3.71E-05  0.98946
    580.  17.241  8.42E-08  2.83E-06  0.00E+00  0.00E+00  0.00E+00  0.00E+00  8.42E-08  2.83E-06  3.72E-05  0.98625
    582.  17.182  9.19E-08  3.11E-06  0.00E+00  0.00E+00  0.00E+00  0.00E+00  9.19E-08  3.11E-06  3.74E-05  0.98529
    584.  17.123  1.06E-07  3.61E-06  0.00E+00  0.00E+00  0.00E+00  0.00E+00  1.06E-07  3.61E-06  3.76E-05  0.98232
    586.  17.065  1.45E-07  4.98E-06  0.00E+00  0.00E+00  0.00E+00  0.00E+00  1.45E-07  4.98E-06  3.79E-05  0.97508
    588.  17.007  2.26E-07  7.83E-06  0.00E+00  0.00E+00  0.00E+00  0.00E+00  2.26E-07  7.83E-06  3.84E-05  0.95807
    590.  16.949  3.19E-07  1.11E-05  0.00E+00  0.00E+00  0.00E+00  0.00E+00  3.19E-07  1.11E-05  3.90E-05  0.93996
    592.  16.892  1.77E-07  6.20E-06  0.00E+00  0.00E+00  0.00E+00  0.00E+00  1.77E-07  6.20E-06  3.94E-05  0.96751
    594.  16.835  2.49E-07  8.78E-06  0.00E+00  0.00E+00  0.00E+00  0.00E+00  2.49E-07  8.78E-06  3.99E-05  0.95211
    596.  16.779  4.31E-07  1.53E-05  0.00E+00  0.00E+00  0.00E+00  0.00E+00  4.31E-07  1.53E-05  4.07E-05  0.92040
    598.  16.722  4.21E-07  1.51E-05  0.00E+00  0.00E+00  0.00E+00  0.00E+00  4.21E-07  1.51E-05  4.16E-05  0.91821
1                                             RADIANCE(WATTS/CM2-STER-XXX)
0  FREQ   WAVLEN    PATH THERMAL      SURFACE EMISSION    SURFACE REFLECTED     TOTAL RADIANCE   INTEGRAL    TOTAL
  (CM-1) (MICRN)    (CM-1)   (MICRN)    (CM-1)   (MICRN)    (CM-1)   (MICRN)    (CM-1)   (MICRN)    (CM-1)   TRANS

    600.  16.667  2.25E-07  8.11E-06  0.00E+00  0.00E+00  0.00E+00  0.00E+00  2.25E-07  8.11E-06  4.20E-05  0.95490
    602.  16.611  2.97E-07  1.08E-05  0.00E+00  0.00E+00  0.00E+00  0.00E+00  2.97E-07  1.08E-05  4.26E-05  0.93870
    604.  16.556  2.52E-07  9.21E-06  0.00E+00  0.00E+00  0.00E+00  0.00E+00  2.52E-07  9.21E-06  4.31E-05  0.94897
    606.  16.502  3.85E-07  1.42E-05  0.00E+00  0.00E+00  0.00E+00  0.00E+00  3.85E-07  1.42E-05  4.39E-05  0.92077
    608.  16.447  3.83E-07  1.41E-05  0.00E+00  0.00E+00  0.00E+00  0.00E+00  3.83E-07  1.41E-05  4.46E-05  0.92082
    610.  16.393  3.01E-07  1.12E-05  0.00E+00  0.00E+00  0.00E+00  0.00E+00  3.01E-07  1.12E-05  4.53E-05  0.93912
    612.  16.340  3.05E-07  1.14E-05  0.00E+00  0.00E+00  0.00E+00  0.00E+00  3.05E-07  1.14E-05  4.59E-05  0.93846
    614.  16.287  3.87E-07  1.46E-05  0.00E+00  0.00E+00  0.00E+00  0.00E+00  3.87E-07  1.46E-05  4.66E-05  0.92110
    616.  16.234  1.00E-06  3.80E-05  0.00E+00  0.00E+00  0.00E+00  0.00E+00  1.00E-06  3.80E-05  4.86E-05  0.79376
    618.  16.181  2.06E-06  7.86E-05  0.00E+00  0.00E+00  0.00E+00  0.00E+00  2.06E-06  7.86E-05  5.27E-05  0.53882
    620.  16.129  3.49E-07  1.34E-05  0.00E+00  0.00E+00  0.00E+00  0.00E+00  3.49E-07  1.34E-05  5.34E-05  0.93076
    622.  16.077  4.54E-07  1.76E-05  0.00E+00  0.00E+00  0.00E+00  0.00E+00  4.54E-07  1.76E-05  5.44E-05  0.90605
    624.  16.026  6.25E-07  2.44E-05  0.00E+00  0.00E+00  0.00E+00  0.00E+00  6.25E-07  2.44E-05  5.56E-05  0.86613
    626.  15.974  6.20E-07  2.43E-05  0.00E+00  0.00E+00  0.00E+00  0.00E+00  6.20E-07  2.43E-05  5.68E-05  0.86556
    628.  15.924  8.24E-07  3.25E-05  0.00E+00  0.00E+00  0.00E+00  0.00E+00  8.24E-07  3.25E-05  5.85E-05  0.81866
    630.  15.873  8.84E-07  3.51E-05  0.00E+00  0.00E+00  0.00E+00  0.00E+00  8.84E-07  3.51E-05  6.03E-05  0.80299
    632.  15.823  9.69E-07  3.87E-05  0.00E+00  0.00E+00  0.00E+00  0.00E+00  9.69E-07  3.87E-05  6.22E-05  0.78228
    634.  15.773  1.12E-06  4.51E-05  0.00E+00  0.00E+00  0.00E+00  0.00E+00  1.12E-06  4.51E-05  6.44E-05  0.74417
    636.  15.723  1.21E-06  4.89E-05  0.00E+00  0.00E+00  0.00E+00  0.00E+00  1.21E-06  4.89E-05  6.69E-05  0.72390
    638.  15.674  1.45E-06  5.92E-05  0.00E+00  0.00E+00  0.00E+00  0.00E+00  1.45E-06  5.92E-05  6.98E-05  0.66193
    640.  15.625  1.61E-06  6.60E-05  0.00E+00  0.00E+00  0.00E+00  0.00E+00  1.61E-06  6.60E-05  7.30E-05  0.62221
    642.  15.576  1.63E-06  6.70E-05  0.00E+00  0.00E+00  0.00E+00  0.00E+00  1.63E-06  6.70E-05  7.62E-05  0.61885
    644.  15.528  2.06E-06  8.53E-05  0.00E+00  0.00E+00  0.00E+00  0.00E+00  2.06E-06  8.53E-05  8.04E-05  0.50834
    646.  15.480  2.24E-06  9.35E-05  0.00E+00  0.00E+00  0.00E+00  0.00E+00  2.24E-06  9.35E-05  8.48E-05  0.45978
    648.  15.432  2.63E-06  1.10E-04  0.00E+00  0.00E+00  0.00E+00  0.00E+00  2.63E-06  1.10E-04  9.01E-05  0.35284
    650.  15.385  2.93E-06  1.24E-04  0.00E+00  0.00E+00  0.00E+00  0.00E+00  2.93E-06  1.24E-04  9.60E-05  0.26699
    652.  15.337  2.61E-06  1.11E-04  0.00E+00  0.00E+00  0.00E+00  0.00E+00  2.61E-06  1.11E-04  1.01E-04  0.35527
    654.  15.291  2.45E-06  1.05E-04  0.00E+00  0.00E+00  0.00E+00  0.00E+00  2.45E-06  1.05E-04  1.06E-04  0.39781
    656.  15.244  2.39E-06  1.03E-04  0.00E+00  0.00E+00  0.00E+00  0.00E+00  2.39E-06  1.03E-04  1.11E-04  0.41057
    658.  15.198  2.65E-06  1.15E-04  0.00E+00  0.00E+00  0.00E+00  0.00E+00  2.65E-06  1.15E-04  1.16E-04  0.33053
    660.  15.152  2.57E-06  1.12E-04  0.00E+00  0.00E+00  0.00E+00  0.00E+00  2.57E-06  1.12E-04  1.21E-04  0.35188
    662.  15.106  2.87E-06  1.26E-04  0.00E+00  0.00E+00  0.00E+00  0.00E+00  2.87E-06  1.26E-04  1.27E-04  0.26912
    664.  15.060  2.91E-06  1.28E-04  0.00E+00  0.00E+00  0.00E+00  0.00E+00  2.91E-06  1.28E-04  1.33E-04  0.25242
    666.  15.015  3.05E-06  1.35E-04  0.00E+00  0.00E+00  0.00E+00  0.00E+00  3.05E-06  1.35E-04  1.39E-04  0.20383
    668.  14.970  3.52E-06  1.57E-04  0.00E+00  0.00E+00  0.00E+00  0.00E+00  3.52E-06  1.57E-04  1.46E-04  0.00209
    670.  14.925  3.31E-06  1.48E-04  0.00E+00  0.00E+00  0.00E+00  0.00E+00  3.31E-06  1.48E-04  1.53E-04  0.11177
    672.  14.881  2.64E-06  1.19E-04  0.00E+00  0.00E+00  0.00E+00  0.00E+00  2.64E-06  1.19E-04  1.58E-04  0.32153
    674.  14.837  2.63E-06  1.19E-04  0.00E+00  0.00E+00  0.00E+00  0.00E+00  2.63E-06  1.19E-04  1.63E-04  0.31271
    676.  14.793  2.50E-06  1.14E-04  0.00E+00  0.00E+00  0.00E+00  0.00E+00  2.50E-06  1.14E-04  1.68E-04  0.35055
    678.  14.749  2.71E-06  1.24E-04  0.00E+00  0.00E+00  0.00E+00  0.00E+00  2.71E-06  1.24E-04  1.74E-04  0.28487
    680.  14.706  2.52E-06  1.17E-04  0.00E+00  0.00E+00  0.00E+00  0.00E+00  2.52E-06  1.17E-04  1.79E-04  0.34215
    682.  14.663  2.56E-06  1.19E-04  0.00E+00  0.00E+00  0.00E+00  0.00E+00  2.56E-06  1.19E-04  1.84E-04  0.32032
    684.  14.620  2.25E-06  1.05E-04  0.00E+00  0.00E+00  0.00E+00  0.00E+00  2.25E-06  1.05E-04  1.88E-04  0.41244
    686.  14.577  2.26E-06  1.06E-04  0.00E+00  0.00E+00  0.00E+00  0.00E+00  2.26E-06  1.06E-04  1.93E-04  0.40127
    688.  14.535  2.02E-06  9.57E-05  0.00E+00  0.00E+00  0.00E+00  0.00E+00  2.02E-06  9.57E-05  1.97E-04  0.47244
    690.  14.493  2.06E-06  9.83E-05  0.00E+00  0.00E+00  0.00E+00  0.00E+00  2.06E-06  9.83E-05  2.01E-04  0.45302
    692.  14.451  1.57E-06  7.53E-05  0.00E+00  0.00E+00  0.00E+00  0.00E+00  1.57E-06  7.53E-05  2.04E-04  0.59496
    694.  14.409  1.52E-06  7.30E-05  0.00E+00  0.00E+00  0.00E+00  0.00E+00  1.52E-06  7.30E-05  2.07E-04  0.60263
    696.  14.368  1.30E-06  6.28E-05  0.00E+00  0.00E+00  0.00E+00  0.00E+00  1.30E-06  6.28E-05  2.10E-04  0.66547
    698.  14.327  1.22E-06  5.95E-05  0.00E+00  0.00E+00  0.00E+00  0.00E+00  1.22E-06  5.95E-05  2.12E-04  0.68033
1                                             RADIANCE(WATTS/CM2-STER-XXX)
0  FREQ   WAVLEN    PATH THERMAL      SURFACE EMISSION    SURFACE REFLECTED     TOTAL RADIANCE   INTEGRAL    TOTAL
  (CM-1) (MICRN)    (CM-1)   (MICRN)    (CM-1)   (MICRN)    (CM-1)   (MICRN)    (CM-1)   (MICRN)    (CM-1)   TRANS

    700.  14.286  8.69E-07  4.26E-05  0.00E+00  0.00E+00  0.00E+00  0.00E+00  8.69E-07  4.26E-05  2.14E-04  0.77692
    702.  14.245  9.97E-07  4.91E-05  0.00E+00  0.00E+00  0.00E+00  0.00E+00  9.97E-07  4.91E-05  2.16E-04  0.73898
    704.  14.205  8.04E-07  3.98E-05  0.00E+00  0.00E+00  0.00E+00  0.00E+00  8.04E-07  3.98E-05  2.17E-04  0.79402
    706.  14.164  6.60E-07  3.29E-05  0.00E+00  0.00E+00  0.00E+00  0.00E+00  6.60E-07  3.29E-05  2.19E-04  0.83269
    708.  14.124  6.59E-07  3.30E-05  0.00E+00  0.00E+00  0.00E+00  0.00E+00  6.59E-07  3.30E-05  2.20E-04  0.83300
    710.  14.085  6.65E-07  3.35E-05  0.00E+00  0.00E+00  0.00E+00  0.00E+00  6.65E-07  3.35E-05  2.21E-04  0.83535
    712.  14.045  6.07E-07  3.08E-05  0.00E+00  0.00E+00  0.00E+00  0.00E+00  6.07E-07  3.08E-05  2.23E-04  0.85093
    714.  14.006  5.35E-07  2.73E-05  0.00E+00  0.00E+00  0.00E+00  0.00E+00  5.35E-07  2.73E-05  2.24E-04  0.86925
    716.  13.966  5.30E-07  2.72E-05  0.00E+00  0.00E+00  0.00E+00  0.00E+00  5.30E-07  2.72E-05  2.25E-04  0.87558
    718.  13.928  6.69E-07  3.45E-05  0.00E+00  0.00E+00  0.00E+00  0.00E+00  6.69E-07  3.45E-05  2.26E-04  0.83782
    720.  13.889  1.68E-06  8.69E-05  0.00E+00  0.00E+00  0.00E+00  0.00E+00  1.68E-06  8.69E-05  2.29E-04  0.53566
    722.  13.850  8.12E-07  4.23E-05  0.00E+00  0.00E+00  0.00E+00  0.00E+00  8.12E-07  4.23E-05  2.31E-04  0.78815
    724.  13.812  4.41E-07  2.31E-05  0.00E+00  0.00E+00  0.00E+00  0.00E+00  4.41E-07  2.31E-05  2.32E-04  0.89646
    726.  13.774  2.83E-07  1.49E-05  0.00E+00  0.00E+00  0.00E+00  0.00E+00  2.83E-07  1.49E-05  2.33E-04  0.93227
    728.  13.736  3.15E-07  1.67E-05  0.00E+00  0.00E+00  0.00E+00  0.00E+00  3.15E-07  1.67E-05  2.33E-04  0.92421
    730.  13.699  4.33E-07  2.31E-05  0.00E+00  0.00E+00  0.00E+00  0.00E+00  4.33E-07  2.31E-05  2.34E-04  0.89283
    732.  13.661  3.35E-07  1.79E-05  0.00E+00  0.00E+00  0.00E+00  0.00E+00  3.35E-07  1.79E-05  2.35E-04  0.91287
    734.  13.624  2.76E-07  1.49E-05  0.00E+00  0.00E+00  0.00E+00  0.00E+00  2.76E-07  1.49E-05  2.35E-04  0.93077
    736.  13.587  3.78E-07  2.05E-05  0.00E+00  0.00E+00  0.00E+00  0.00E+00  3.78E-07  2.05E-05  2.36E-04  0.90398
    738.  13.550  3.37E-07  1.84E-05  0.00E+00  0.00E+00  0.00E+00  0.00E+00  3.37E-07  1.84E-05  2.37E-04  0.91246
    740.  13.514  3.13E-07  1.71E-05  0.00E+00  0.00E+00  0.00E+00  0.00E+00  3.13E-07  1.71E-05  2.37E-04  0.92191
    742.  13.477  4.70E-07  2.59E-05  0.00E+00  0.00E+00  0.00E+00  0.00E+00  4.70E-07  2.59E-05  2.38E-04  0.87999
    744.  13.441  2.57E-07  1.43E-05  0.00E+00  0.00E+00  0.00E+00  0.00E+00  2.57E-07  1.43E-05  2.39E-04  0.93576
    746.  13.405  1.60E-07  8.92E-06  0.00E+00  0.00E+00  0.00E+00  0.00E+00  1.60E-07  8.92E-06  2.39E-04  0.96069
    748.  13.369  1.68E-07  9.42E-06  0.00E+00  0.00E+00  0.00E+00  0.00E+00  1.68E-07  9.42E-06  2.39E-04  0.95780
    750.  13.333  2.13E-07  1.20E-05  0.00E+00  0.00E+00  0.00E+00  0.00E+00  2.13E-07  1.20E-05  2.40E-04  0.94951
    752.  13.298  1.39E-07  7.87E-06  0.00E+00  0.00E+00  0.00E+00  0.00E+00  1.39E-07  7.87E-06  2.40E-04  0.96773
    754.  13.263  1.31E-07  7.47E-06  0.00E+00  0.00E+00  0.00E+00  0.00E+00  1.31E-07  7.47E-06  2.40E-04  0.96979
    756.  13.228  1.42E-07  8.10E-06  0.00E+00  0.00E+00  0.00E+00  0.00E+00  1.42E-07  8.10E-06  2.41E-04  0.96901
    758.  13.193  1.28E-07  7.35E-06  0.00E+00  0.00E+00  0.00E+00  0.00E+00  1.28E-07  7.35E-06  2.41E-04  0.97206
    760.  13.158  8.24E-08  4.76E-06  0.00E+00  0.00E+00  0.00E+00  0.00E+00  8.24E-08  4.76E-06  2.41E-04  0.98196
    762.  13.123  8.23E-08  4.78E-06  0.00E+00  0.00E+00  0.00E+00  0.00E+00  8.23E-08  4.78E-06  2.41E-04  0.98190
    764.  13.089  7.25E-08  4.23E-06  0.00E+00  0.00E+00  0.00E+00  0.00E+00  7.25E-08  4.23E-06  2.41E-04  0.98406
    766.  13.055  6.37E-08  3.74E-06  0.00E+00  0.00E+00  0.00E+00  0.00E+00  6.37E-08  3.74E-06  2.42E-04  0.98605
    768.  13.021  4.85E-08  2.86E-06  0.00E+00  0.00E+00  0.00E+00  0.00E+00  4.85E-08  2.86E-06  2.42E-04  0.98934
    770.  12.987  4.78E-08  2.83E-06  0.00E+00  0.00E+00  0.00E+00  0.00E+00  4.78E-08  2.83E-06  2.42E-04  0.98946
    772.  12.953  4.57E-08  2.72E-06  0.00E+00  0.00E+00  0.00E+00  0.00E+00  4.57E-08  2.72E-06  2.42E-04  0.98980
    774.  12.920  3.59E-08  2.15E-06  0.00E+00  0.00E+00  0.00E+00  0.00E+00  3.59E-08  2.15E-06  2.42E-04  0.99192
    776.  12.887  3.78E-08  2.27E-06  0.00E+00  0.00E+00  0.00E+00  0.00E+00  3.78E-08  2.27E-06  2.42E-04  0.99145
    778.  12.853  3.14E-08  1.90E-06  0.00E+00  0.00E+00  0.00E+00  0.00E+00  3.14E-08  1.90E-06  2.42E-04  0.99289
    780.  12.821  2.76E-08  1.68E-06  0.00E+00  0.00E+00  0.00E+00  0.00E+00  2.76E-08  1.68E-06  2.42E-04  0.99367
    782.  12.788  2.59E-08  1.59E-06  0.00E+00  0.00E+00  0.00E+00  0.00E+00  2.59E-08  1.59E-06  2.42E-04  0.99402
    784.  12.755  2.68E-08  1.65E-06  0.00E+00  0.00E+00  0.00E+00  0.00E+00  2.68E-08  1.65E-06  2.42E-04  0.99379
    786.  12.723  2.24E-08  1.38E-06  0.00E+00  0.00E+00  0.00E+00  0.00E+00  2.24E-08  1.38E-06  2.42E-04  0.99478
    788.  12.690  1.55E-08  9.63E-07  0.00E+00  0.00E+00  0.00E+00  0.00E+00  1.55E-08  9.63E-07  2.42E-04  0.99635
    790.  12.658  2.05E-08  1.28E-06  0.00E+00  0.00E+00  0.00E+00  0.00E+00  2.05E-08  1.28E-06  2.42E-04  0.99518
    792.  12.626  6.48E-08  4.06E-06  0.00E+00  0.00E+00  0.00E+00  0.00E+00  6.48E-08  4.06E-06  2.42E-04  0.98511
    794.  12.594  1.56E-08  9.83E-07  0.00E+00  0.00E+00  0.00E+00  0.00E+00  1.56E-08  9.83E-07  2.42E-04  0.99632
    796.  12.563  1.25E-08  7.94E-07  0.00E+00  0.00E+00  0.00E+00  0.00E+00  1.25E-08  7.94E-07  2.42E-04  0.99698
    798.  12.531  1.53E-08  9.74E-07  0.00E+00  0.00E+00  0.00E+00  0.00E+00  1.53E-08  9.74E-07  2.43E-04  0.99632
1                                             RADIANCE(WATTS/CM2-STER-XXX)
0  FREQ   WAVLEN    PATH THERMAL      SURFACE EMISSION    SURFACE REFLECTED     TOTAL RADIANCE   INTEGRAL    TOTAL
  (CM-1) (MICRN)    (CM-1)   (MICRN)    (CM-1)   (MICRN)    (CM-1)   (MICRN)    (CM-1)   (MICRN)    (CM-1)   TRANS

    800.  12.500  1.30E-08  8.31E-07  0.00E+00  0.00E+00  0.00E+00  0.00E+00  1.30E-08  8.31E-07  2.43E-04  0.99686
    802.  12.469  1.15E-08  7.37E-07  0.00E+00  0.00E+00  0.00E+00  0.00E+00  1.15E-08  7.37E-07  2.43E-04  0.99721
    804.  12.438  9.50E-09  6.14E-07  0.00E+00  0.00E+00  0.00E+00  0.00E+00  9.50E-09  6.14E-07  2.43E-04  0.99768
    806.  12.407  1.15E-08  7.47E-07  0.00E+00  0.00E+00  0.00E+00  0.00E+00  1.15E-08  7.47E-07  2.43E-04  0.99721
    808.  12.376  9.82E-09  6.41E-07  0.00E+00  0.00E+00  0.00E+00  0.00E+00  9.82E-09  6.41E-07  2.43E-04  0.99758
    810.  12.346  7.25E-09  4.76E-07  0.00E+00  0.00E+00  0.00E+00  0.00E+00  7.25E-09  4.76E-07  2.43E-04  0.99820
    812.  12.315  6.70E-09  4.42E-07  0.00E+00  0.00E+00  0.00E+00  0.00E+00  6.70E-09  4.42E-07  2.43E-04  0.99834
    814.  12.285  6.31E-09  4.18E-07  0.00E+00  0.00E+00  0.00E+00  0.00E+00  6.31E-09  4.18E-07  2.43E-04  0.99842
    816.  12.255  5.39E-09  3.59E-07  0.00E+00  0.00E+00  0.00E+00  0.00E+00  5.39E-09  3.59E-07  2.43E-04  0.99865
    818.  12.225  3.70E-09  2.48E-07  0.00E+00  0.00E+00  0.00E+00  0.00E+00  3.70E-09  2.48E-07  2.43E-04  0.99906
    820.  12.195  3.12E-09  2.10E-07  0.00E+00  0.00E+00  0.00E+00  0.00E+00  3.12E-09  2.10E-07  2.43E-04  0.99922
    822.  12.165  2.72E-09  1.84E-07  0.00E+00  0.00E+00  0.00E+00  0.00E+00  2.72E-09  1.84E-07  2.43E-04  0.99933
    824.  12.136  2.01E-09  1.37E-07  0.00E+00  0.00E+00  0.00E+00  0.00E+00  2.01E-09  1.37E-07  2.43E-04  0.99950
    826.  12.107  1.70E-09  1.16E-07  0.00E+00  0.00E+00  0.00E+00  0.00E+00  1.70E-09  1.16E-07  2.43E-04  0.99958
    828.  12.077  1.77E-09  1.21E-07  0.00E+00  0.00E+00  0.00E+00  0.00E+00  1.77E-09  1.21E-07  2.43E-04  0.99958
    830.  12.048  1.47E-09  1.01E-07  0.00E+00  0.00E+00  0.00E+00  0.00E+00  1.47E-09  1.01E-07  2.43E-04  0.99964
    832.  12.019  1.05E-09  7.25E-08  0.00E+00  0.00E+00  0.00E+00  0.00E+00  1.05E-09  7.25E-08  2.43E-04  0.99974
    834.  11.990  9.84E-10  6.84E-08  0.00E+00  0.00E+00  0.00E+00  0.00E+00  9.84E-10  6.84E-08  2.43E-04  0.99975
    836.  11.962  8.66E-10  6.05E-08  0.00E+00  0.00E+00  0.00E+00  0.00E+00  8.66E-10  6.05E-08  2.43E-04  0.99978
    838.  11.933  9.40E-10  6.60E-08  0.00E+00  0.00E+00  0.00E+00  0.00E+00  9.40E-10  6.60E-08  2.43E-04  0.99975
    840.  11.905  8.57E-10  6.05E-08  0.00E+00  0.00E+00  0.00E+00  0.00E+00  8.57E-10  6.05E-08  2.43E-04  0.99976
    842.  11.876  9.45E-10  6.70E-08  0.00E+00  0.00E+00  0.00E+00  0.00E+00  9.45E-10  6.70E-08  2.43E-04  0.99972
    844.  11.848  1.16E-09  8.24E-08  0.00E+00  0.00E+00  0.00E+00  0.00E+00  1.16E-09  8.24E-08  2.43E-04  0.99963
    846.  11.820  1.35E-09  9.68E-08  0.00E+00  0.00E+00  0.00E+00  0.00E+00  1.35E-09  9.68E-08  2.43E-04  0.99956
    848.  11.792  1.45E-09  1.04E-07  0.00E+00  0.00E+00  0.00E+00  0.00E+00  1.45E-09  1.04E-07  2.43E-04  0.99951
    850.  11.765  1.76E-09  1.27E-07  0.00E+00  0.00E+00  0.00E+00  0.00E+00  1.76E-09  1.27E-07  2.43E-04  0.99940
    852.  11.737  2.00E-09  1.45E-07  0.00E+00  0.00E+00  0.00E+00  0.00E+00  2.00E-09  1.45E-07  2.43E-04  0.99933
    854.  11.710  2.23E-09  1.63E-07  0.00E+00  0.00E+00  0.00E+00  0.00E+00  2.23E-09  1.63E-07  2.43E-04  0.99925
    856.  11.682  2.85E-09  2.09E-07  0.00E+00  0.00E+00  0.00E+00  0.00E+00  2.85E-09  2.09E-07  2.43E-04  0.99902
    858.  11.655  3.56E-09  2.62E-07  0.00E+00  0.00E+00  0.00E+00  0.00E+00  3.56E-09  2.62E-07  2.43E-04  0.99875
    860.  11.628  4.61E-09  3.41E-07  0.00E+00  0.00E+00  0.00E+00  0.00E+00  4.61E-09  3.41E-07  2.43E-04  0.99837
    862.  11.601  5.38E-09  3.99E-07  0.00E+00  0.00E+00  0.00E+00  0.00E+00  5.38E-09  3.99E-07  2.43E-04  0.99807
    864.  11.574  6.89E-09  5.14E-07  0.00E+00  0.00E+00  0.00E+00  0.00E+00  6.89E-09  5.14E-07  2.43E-04  0.99751
    866.  11.547  7.24E-09  5.43E-07  0.00E+00  0.00E+00  0.00E+00  0.00E+00  7.24E-09  5.43E-07  2.43E-04  0.99734
    868.  11.521  7.93E-09  5.97E-07  0.00E+00  0.00E+00  0.00E+00  0.00E+00  7.93E-09  5.97E-07  2.43E-04  0.99707
    870.  11.494  8.01E-09  6.06E-07  0.00E+00  0.00E+00  0.00E+00  0.00E+00  8.01E-09  6.06E-07  2.43E-04  0.99701
    872.  11.468  7.92E-09  6.02E-07  0.00E+00  0.00E+00  0.00E+00  0.00E+00  7.92E-09  6.02E-07  2.43E-04  0.99703
    874.  11.442  7.61E-09  5.81E-07  0.00E+00  0.00E+00  0.00E+00  0.00E+00  7.61E-09  5.81E-07  2.43E-04  0.99713
    876.  11.416  7.34E-09  5.63E-07  0.00E+00  0.00E+00  0.00E+00  0.00E+00  7.34E-09  5.63E-07  2.43E-04  0.99722
    878.  11.390  1.31E-08  1.01E-06  0.00E+00  0.00E+00  0.00E+00  0.00E+00  1.31E-08  1.01E-06  2.43E-04  0.99496
    880.  11.364  1.18E-08  9.10E-07  0.00E+00  0.00E+00  0.00E+00  0.00E+00  1.18E-08  9.10E-07  2.43E-04  0.99546
    882.  11.338  9.44E-09  7.34E-07  0.00E+00  0.00E+00  0.00E+00  0.00E+00  9.44E-09  7.34E-07  2.43E-04  0.99633
    884.  11.312  1.12E-08  8.76E-07  0.00E+00  0.00E+00  0.00E+00  0.00E+00  1.12E-08  8.76E-07  2.43E-04  0.99561
    886.  11.287  1.17E-08  9.21E-07  0.00E+00  0.00E+00  0.00E+00  0.00E+00  1.17E-08  9.21E-07  2.43E-04  0.99537
    888.  11.261  1.24E-08  9.81E-07  0.00E+00  0.00E+00  0.00E+00  0.00E+00  1.24E-08  9.81E-07  2.43E-04  0.99504
    890.  11.236  1.19E-08  9.45E-07  0.00E+00  0.00E+00  0.00E+00  0.00E+00  1.19E-08  9.45E-07  2.43E-04  0.99523
    892.  11.211  1.16E-08  9.20E-07  0.00E+00  0.00E+00  0.00E+00  0.00E+00  1.16E-08  9.20E-07  2.43E-04  0.99535
    894.  11.186  9.75E-09  7.79E-07  0.00E+00  0.00E+00  0.00E+00  0.00E+00  9.75E-09  7.79E-07  2.43E-04  0.99607
    896.  11.161  1.60E-08  1.29E-06  0.00E+00  0.00E+00  0.00E+00  0.00E+00  1.60E-08  1.29E-06  2.43E-04  0.99349
    898.  11.136  7.51E-09  6.05E-07  0.00E+00  0.00E+00  0.00E+00  0.00E+00  7.51E-09  6.05E-07  2.43E-04  0.99696
1                                             RADIANCE(WATTS/CM2-STER-XXX)
0  FREQ   WAVLEN    PATH THERMAL      SURFACE EMISSION    SURFACE REFLECTED     TOTAL RADIANCE   INTEGRAL    TOTAL
  (CM-1) (MICRN)    (CM-1)   (MICRN)    (CM-1)   (MICRN)    (CM-1)   (MICRN)    (CM-1)   (MICRN)    (CM-1)   TRANS

    900.  11.111  7.24E-09  5.86E-07  0.00E+00  0.00E+00  0.00E+00  0.00E+00  7.24E-09  5.86E-07  2.43E-04  0.99705
    902.  11.086  6.75E-09  5.49E-07  0.00E+00  0.00E+00  0.00E+00  0.00E+00  6.75E-09  5.49E-07  2.43E-04  0.99723
    904.  11.062  6.63E-09  5.41E-07  0.00E+00  0.00E+00  0.00E+00  0.00E+00  6.63E-09  5.41E-07  2.43E-04  0.99726
    906.  11.038  6.79E-09  5.57E-07  0.00E+00  0.00E+00  0.00E+00  0.00E+00  6.79E-09  5.57E-07  2.43E-04  0.99717
    908.  11.013  7.08E-09  5.83E-07  0.00E+00  0.00E+00  0.00E+00  0.00E+00  7.08E-09  5.83E-07  2.43E-04  0.99703
    910.  10.989  7.08E-09  5.87E-07  0.00E+00  0.00E+00  0.00E+00  0.00E+00  7.08E-09  5.87E-07  2.43E-04  0.99703
    912.  10.965  5.38E-09  4.47E-07  0.00E+00  0.00E+00  0.00E+00  0.00E+00  5.38E-09  4.47E-07  2.43E-04  0.99774
    914.  10.941  3.87E-09  3.23E-07  0.00E+00  0.00E+00  0.00E+00  0.00E+00  3.87E-09  3.23E-07  2.43E-04  0.99837
    916.  10.917  2.86E-09  2.40E-07  0.00E+00  0.00E+00  0.00E+00  0.00E+00  2.86E-09  2.40E-07  2.43E-04  0.99881
    918.  10.893  2.21E-09  1.86E-07  0.00E+00  0.00E+00  0.00E+00  0.00E+00  2.21E-09  1.86E-07  2.43E-04  0.99909
    920.  10.870  1.58E-09  1.34E-07  0.00E+00  0.00E+00  0.00E+00  0.00E+00  1.58E-09  1.34E-07  2.43E-04  0.99936
    922.  10.846  1.60E-09  1.36E-07  0.00E+00  0.00E+00  0.00E+00  0.00E+00  1.60E-09  1.36E-07  2.43E-04  0.99935
    924.  10.823  1.23E-09  1.05E-07  0.00E+00  0.00E+00  0.00E+00  0.00E+00  1.23E-09  1.05E-07  2.43E-04  0.99952
    926.  10.799  1.28E-09  1.09E-07  0.00E+00  0.00E+00  0.00E+00  0.00E+00  1.28E-09  1.09E-07  2.43E-04  0.99951
    928.  10.776  1.41E-09  1.21E-07  0.00E+00  0.00E+00  0.00E+00  0.00E+00  1.41E-09  1.21E-07  2.43E-04  0.99945
    930.  10.753  1.52E-09  1.32E-07  0.00E+00  0.00E+00  0.00E+00  0.00E+00  1.52E-09  1.32E-07  2.43E-04  0.99942
    932.  10.730  1.50E-09  1.31E-07  0.00E+00  0.00E+00  0.00E+00  0.00E+00  1.50E-09  1.31E-07  2.43E-04  0.99946
    934.  10.707  1.50E-09  1.31E-07  0.00E+00  0.00E+00  0.00E+00  0.00E+00  1.50E-09  1.31E-07  2.43E-04  0.99949
    936.  10.684  1.58E-09  1.39E-07  0.00E+00  0.00E+00  0.00E+00  0.00E+00  1.58E-09  1.39E-07  2.43E-04  0.99948
    938.  10.661  1.72E-09  1.52E-07  0.00E+00  0.00E+00  0.00E+00  0.00E+00  1.72E-09  1.52E-07  2.43E-04  0.99945
    940.  10.638  1.90E-09  1.68E-07  0.00E+00  0.00E+00  0.00E+00  0.00E+00  1.90E-09  1.68E-07  2.43E-04  0.99938
    942.  10.616  3.02E-09  2.68E-07  0.00E+00  0.00E+00  0.00E+00  0.00E+00  3.02E-09  2.68E-07  2.43E-04  0.99901
    944.  10.593  2.37E-09  2.12E-07  0.00E+00  0.00E+00  0.00E+00  0.00E+00  2.37E-09  2.12E-07  2.43E-04  0.99921
    946.  10.571  2.53E-09  2.27E-07  0.00E+00  0.00E+00  0.00E+00  0.00E+00  2.53E-09  2.27E-07  2.43E-04  0.99915
    948.  10.549  3.79E-09  3.41E-07  0.00E+00  0.00E+00  0.00E+00  0.00E+00  3.79E-09  3.41E-07  2.43E-04  0.99872
    950.  10.526  2.68E-09  2.42E-07  0.00E+00  0.00E+00  0.00E+00  0.00E+00  2.68E-09  2.42E-07  2.43E-04  0.99909
    952.  10.504  2.61E-09  2.36E-07  0.00E+00  0.00E+00  0.00E+00  0.00E+00  2.61E-09  2.36E-07  2.43E-04  0.99911
    954.  10.482  2.50E-09  2.28E-07  0.00E+00  0.00E+00  0.00E+00  0.00E+00  2.50E-09  2.28E-07  2.43E-04  0.99914
    956.  10.460  3.08E-09  2.81E-07  0.00E+00  0.00E+00  0.00E+00  0.00E+00  3.08E-09  2.81E-07  2.43E-04  0.99894
    958.  10.438  2.28E-09  2.09E-07  0.00E+00  0.00E+00  0.00E+00  0.00E+00  2.28E-09  2.09E-07  2.43E-04  0.99922
    960.  10.417  1.59E-09  1.46E-07  0.00E+00  0.00E+00  0.00E+00  0.00E+00  1.59E-09  1.46E-07  2.43E-04  0.99947
    962.  10.395  2.37E-09  2.19E-07  0.00E+00  0.00E+00  0.00E+00  0.00E+00  2.37E-09  2.19E-07  2.43E-04  0.99920
    964.  10.373  3.26E-09  3.03E-07  0.00E+00  0.00E+00  0.00E+00  0.00E+00  3.26E-09  3.03E-07  2.43E-04  0.99889
    966.  10.352  5.26E-09  4.91E-07  0.00E+00  0.00E+00  0.00E+00  0.00E+00  5.26E-09  4.91E-07  2.43E-04  0.99818
    968.  10.331  6.67E-09  6.25E-07  0.00E+00  0.00E+00  0.00E+00  0.00E+00  6.67E-09  6.25E-07  2.43E-04  0.99767
    970.  10.309  7.84E-09  7.37E-07  0.00E+00  0.00E+00  0.00E+00  0.00E+00  7.84E-09  7.37E-07  2.43E-04  0.99727
    972.  10.288  1.17E-08  1.10E-06  0.00E+00  0.00E+00  0.00E+00  0.00E+00  1.17E-08  1.10E-06  2.43E-04  0.99588
    974.  10.267  1.13E-08  1.07E-06  0.00E+00  0.00E+00  0.00E+00  0.00E+00  1.13E-08  1.07E-06  2.43E-04  0.99601
    976.  10.246  1.81E-08  1.72E-06  0.00E+00  0.00E+00  0.00E+00  0.00E+00  1.81E-08  1.72E-06  2.43E-04  0.99358
    978.  10.225  2.04E-08  1.95E-06  0.00E+00  0.00E+00  0.00E+00  0.00E+00  2.04E-08  1.95E-06  2.44E-04  0.99271
    980.  10.204  2.55E-08  2.45E-06  0.00E+00  0.00E+00  0.00E+00  0.00E+00  2.55E-08  2.45E-06  2.44E-04  0.99080
    982.  10.183  3.53E-08  3.40E-06  0.00E+00  0.00E+00  0.00E+00  0.00E+00  3.53E-08  3.40E-06  2.44E-04  0.98712
    984.  10.163  4.13E-08  4.00E-06  0.00E+00  0.00E+00  0.00E+00  0.00E+00  4.13E-08  4.00E-06  2.44E-04  0.98476
    986.  10.142  5.92E-08  5.75E-06  0.00E+00  0.00E+00  0.00E+00  0.00E+00  5.92E-08  5.75E-06  2.44E-04  0.97781
    988.  10.121  7.41E-08  7.23E-06  0.00E+00  0.00E+00  0.00E+00  0.00E+00  7.41E-08  7.23E-06  2.44E-04  0.97183
    990.  10.101  9.34E-08  9.15E-06  0.00E+00  0.00E+00  0.00E+00  0.00E+00  9.34E-08  9.15E-06  2.44E-04  0.96389
    992.  10.081  1.25E-07  1.23E-05  0.00E+00  0.00E+00  0.00E+00  0.00E+00  1.25E-07  1.23E-05  2.44E-04  0.95036
    994.  10.060  1.46E-07  1.44E-05  0.00E+00  0.00E+00  0.00E+00  0.00E+00  1.46E-07  1.44E-05  2.45E-04  0.94078
    996.  10.040  1.75E-07  1.73E-05  0.00E+00  0.00E+00  0.00E+00  0.00E+00  1.75E-07  1.73E-05  2.45E-04  0.92679
    998.  10.020  2.18E-07  2.17E-05  0.00E+00  0.00E+00  0.00E+00  0.00E+00  2.18E-07  2.17E-05  2.46E-04  0.90555
1                                             RADIANCE(WATTS/CM2-STER-XXX)
0  FREQ   WAVLEN    PATH THERMAL      SURFACE EMISSION    SURFACE REFLECTED     TOTAL RADIANCE   INTEGRAL    TOTAL
  (CM-1) (MICRN)    (CM-1)   (MICRN)    (CM-1)   (MICRN)    (CM-1)   (MICRN)    (CM-1)   (MICRN)    (CM-1)   TRANS

   1000.  10.000  2.36E-07  2.36E-05  0.00E+00  0.00E+00  0.00E+00  0.00E+00  2.36E-07  2.36E-05  2.46E-04  0.89432
   1002.   9.980  2.87E-07  2.88E-05  0.00E+00  0.00E+00  0.00E+00  0.00E+00  2.87E-07  2.88E-05  2.47E-04  0.86585
   1004.   9.960  3.07E-07  3.10E-05  0.00E+00  0.00E+00  0.00E+00  0.00E+00  3.07E-07  3.10E-05  2.47E-04  0.85284
   1006.   9.940  3.51E-07  3.56E-05  0.00E+00  0.00E+00  0.00E+00  0.00E+00  3.51E-07  3.56E-05  2.48E-04  0.82238
   1008.   9.921  3.55E-07  3.61E-05  0.00E+00  0.00E+00  0.00E+00  0.00E+00  3.55E-07  3.61E-05  2.49E-04  0.81457
   1010.   9.901  3.83E-07  3.91E-05  0.00E+00  0.00E+00  0.00E+00  0.00E+00  3.83E-07  3.91E-05  2.49E-04  0.79110
   1012.   9.881  4.17E-07  4.27E-05  0.00E+00  0.00E+00  0.00E+00  0.00E+00  4.17E-07  4.27E-05  2.50E-04  0.76608
   1014.   9.862  4.51E-07  4.63E-05  0.00E+00  0.00E+00  0.00E+00  0.00E+00  4.51E-07  4.63E-05  2.51E-04  0.74032
   1016.   9.843  4.51E-07  4.66E-05  0.00E+00  0.00E+00  0.00E+00  0.00E+00  4.51E-07  4.66E-05  2.52E-04  0.73463
   1018.   9.823  5.03E-07  5.21E-05  0.00E+00  0.00E+00  0.00E+00  0.00E+00  5.03E-07  5.21E-05  2.53E-04  0.69461
   1020.   9.804  5.19E-07  5.40E-05  0.00E+00  0.00E+00  0.00E+00  0.00E+00  5.19E-07  5.40E-05  2.54E-04  0.67902
   1022.   9.785  5.39E-07  5.63E-05  0.00E+00  0.00E+00  0.00E+00  0.00E+00  5.39E-07  5.63E-05  2.55E-04  0.65865
   1024.   9.766  5.53E-07  5.80E-05  0.00E+00  0.00E+00  0.00E+00  0.00E+00  5.53E-07  5.80E-05  2.56E-04  0.64561
   1026.   9.747  5.22E-07  5.49E-05  0.00E+00  0.00E+00  0.00E+00  0.00E+00  5.22E-07  5.49E-05  2.57E-04  0.66074
   1028.   9.728  5.24E-07  5.54E-05  0.00E+00  0.00E+00  0.00E+00  0.00E+00  5.24E-07  5.54E-05  2.58E-04  0.65445
   1030.   9.709  5.53E-07  5.87E-05  0.00E+00  0.00E+00  0.00E+00  0.00E+00  5.53E-07  5.87E-05  2.59E-04  0.63170
   1032.   9.690  5.38E-07  5.73E-05  0.00E+00  0.00E+00  0.00E+00  0.00E+00  5.38E-07  5.73E-05  2.60E-04  0.64431
   1034.   9.671  5.70E-07  6.09E-05  0.00E+00  0.00E+00  0.00E+00  0.00E+00  5.70E-07  6.09E-05  2.62E-04  0.62621
   1036.   9.653  6.17E-07  6.62E-05  0.00E+00  0.00E+00  0.00E+00  0.00E+00  6.17E-07  6.62E-05  2.63E-04  0.59387
   1038.   9.634  6.39E-07  6.88E-05  0.00E+00  0.00E+00  0.00E+00  0.00E+00  6.39E-07  6.88E-05  2.64E-04  0.57337
   1040.   9.615  6.67E-07  7.21E-05  0.00E+00  0.00E+00  0.00E+00  0.00E+00  6.67E-07  7.21E-05  2.65E-04  0.54158
   1042.   9.597  4.28E-07  4.64E-05  0.00E+00  0.00E+00  0.00E+00  0.00E+00  4.28E-07  4.64E-05  2.66E-04  0.71842
   1044.   9.579  2.45E-07  2.67E-05  0.00E+00  0.00E+00  0.00E+00  0.00E+00  2.45E-07  2.67E-05  2.67E-04  0.85641
   1046.   9.560  4.41E-07  4.83E-05  0.00E+00  0.00E+00  0.00E+00  0.00E+00  4.41E-07  4.83E-05  2.68E-04  0.70053
   1048.   9.542  5.63E-07  6.18E-05  0.00E+00  0.00E+00  0.00E+00  0.00E+00  5.63E-07  6.18E-05  2.69E-04  0.59723
   1050.   9.524  5.59E-07  6.16E-05  0.00E+00  0.00E+00  0.00E+00  0.00E+00  5.59E-07  6.16E-05  2.70E-04  0.59256
   1052.   9.506  6.01E-07  6.65E-05  0.00E+00  0.00E+00  0.00E+00  0.00E+00  6.01E-07  6.65E-05  2.71E-04  0.55204
   1054.   9.488  6.02E-07  6.69E-05  0.00E+00  0.00E+00  0.00E+00  0.00E+00  6.02E-07  6.69E-05  2.72E-04  0.54864
   1056.   9.470  6.07E-07  6.77E-05  0.00E+00  0.00E+00  0.00E+00  0.00E+00  6.07E-07  6.77E-05  2.74E-04  0.54565
   1058.   9.452  5.51E-07  6.17E-05  0.00E+00  0.00E+00  0.00E+00  0.00E+00  5.51E-07  6.17E-05  2.75E-04  0.59337
   1060.   9.434  4.93E-07  5.54E-05  0.00E+00  0.00E+00  0.00E+00  0.00E+00  4.93E-07  5.54E-05  2.76E-04  0.64366
   1062.   9.416  4.62E-07  5.21E-05  0.00E+00  0.00E+00  0.00E+00  0.00E+00  4.62E-07  5.21E-05  2.77E-04  0.67792
   1064.   9.398  3.61E-07  4.08E-05  0.00E+00  0.00E+00  0.00E+00  0.00E+00  3.61E-07  4.08E-05  2.77E-04  0.76259
   1066.   9.381  2.54E-07  2.89E-05  0.00E+00  0.00E+00  0.00E+00  0.00E+00  2.54E-07  2.89E-05  2.78E-04  0.84427
   1068.   9.363  1.83E-07  2.08E-05  0.00E+00  0.00E+00  0.00E+00  0.00E+00  1.83E-07  2.08E-05  2.78E-04  0.89909
   1070.   9.346  9.64E-08  1.10E-05  0.00E+00  0.00E+00  0.00E+00  0.00E+00  9.64E-08  1.10E-05  2.78E-04  0.94944
   1072.   9.328  4.46E-08  5.13E-06  0.00E+00  0.00E+00  0.00E+00  0.00E+00  4.46E-08  5.13E-06  2.78E-04  0.97690
   1074.   9.311  4.39E-08  5.07E-06  0.00E+00  0.00E+00  0.00E+00  0.00E+00  4.39E-08  5.07E-06  2.79E-04  0.97621
   1076.   9.294  4.48E-08  5.19E-06  0.00E+00  0.00E+00  0.00E+00  0.00E+00  4.48E-08  5.19E-06  2.79E-04  0.97545
   1078.   9.276  3.09E-08  3.59E-06  0.00E+00  0.00E+00  0.00E+00  0.00E+00  3.09E-08  3.59E-06  2.79E-04  0.98301
   1080.   9.259  4.45E-08  5.19E-06  0.00E+00  0.00E+00  0.00E+00  0.00E+00  4.45E-08  5.19E-06  2.79E-04  0.97508
   1082.   9.242  4.42E-08  5.17E-06  0.00E+00  0.00E+00  0.00E+00  0.00E+00  4.42E-08  5.17E-06  2.79E-04  0.97510
   1084.   9.225  3.03E-08  3.56E-06  0.00E+00  0.00E+00  0.00E+00  0.00E+00  3.03E-08  3.56E-06  2.79E-04  0.98291
   1086.   9.208  3.73E-08  4.40E-06  0.00E+00  0.00E+00  0.00E+00  0.00E+00  3.73E-08  4.40E-06  2.79E-04  0.97862
   1088.   9.191  4.10E-08  4.85E-06  0.00E+00  0.00E+00  0.00E+00  0.00E+00  4.10E-08  4.85E-06  2.79E-04  0.97616
   1090.   9.174  3.49E-08  4.15E-06  0.00E+00  0.00E+00  0.00E+00  0.00E+00  3.49E-08  4.15E-06  2.79E-04  0.97965
   1092.   9.158  2.97E-08  3.55E-06  0.00E+00  0.00E+00  0.00E+00  0.00E+00  2.97E-08  3.55E-06  2.79E-04  0.98249
   1094.   9.141  3.78E-08  4.53E-06  0.00E+00  0.00E+00  0.00E+00  0.00E+00  3.78E-08  4.53E-06  2.79E-04  0.97733
   1096.   9.124  2.81E-08  3.38E-06  0.00E+00  0.00E+00  0.00E+00  0.00E+00  2.81E-08  3.38E-06  2.79E-04  0.98312
   1098.   9.107  2.90E-08  3.50E-06  0.00E+00  0.00E+00  0.00E+00  0.00E+00  2.90E-08  3.50E-06  2.79E-04  0.98237
1                                             RADIANCE(WATTS/CM2-STER-XXX)
0  FREQ   WAVLEN    PATH THERMAL      SURFACE EMISSION    SURFACE REFLECTED     TOTAL RADIANCE   INTEGRAL    TOTAL
  (CM-1) (MICRN)    (CM-1)   (MICRN)    (CM-1)   (MICRN)    (CM-1)   (MICRN)    (CM-1)   (MICRN)    (CM-1)   TRANS

   1100.   9.091  3.02E-08  3.65E-06  0.00E+00  0.00E+00  0.00E+00  0.00E+00  3.02E-08  3.65E-06  2.79E-04  0.98159
   1102.   9.074  3.06E-08  3.72E-06  0.00E+00  0.00E+00  0.00E+00  0.00E+00  3.06E-08  3.72E-06  2.80E-04  0.98116
   1104.   9.058  2.47E-08  3.01E-06  0.00E+00  0.00E+00  0.00E+00  0.00E+00  2.47E-08  3.01E-06  2.80E-04  0.98478
   1106.   9.042  2.27E-08  2.78E-06  0.00E+00  0.00E+00  0.00E+00  0.00E+00  2.27E-08  2.78E-06  2.80E-04  0.98590
   1108.   9.025  2.36E-08  2.90E-06  0.00E+00  0.00E+00  0.00E+00  0.00E+00  2.36E-08  2.90E-06  2.80E-04  0.98522
   1110.   9.009  2.38E-08  2.93E-06  0.00E+00  0.00E+00  0.00E+00  0.00E+00  2.38E-08  2.93E-06  2.80E-04  0.98484
   1112.   8.993  2.86E-08  3.53E-06  0.00E+00  0.00E+00  0.00E+00  0.00E+00  2.86E-08  3.53E-06  2.80E-04  0.98155
   1114.   8.977  3.15E-08  3.91E-06  0.00E+00  0.00E+00  0.00E+00  0.00E+00  3.15E-08  3.91E-06  2.80E-04  0.97944
   1116.   8.961  3.03E-08  3.78E-06  0.00E+00  0.00E+00  0.00E+00  0.00E+00  3.03E-08  3.78E-06  2.80E-04  0.97986
   1118.   8.945  4.18E-08  5.22E-06  0.00E+00  0.00E+00  0.00E+00  0.00E+00  4.18E-08  5.22E-06  2.80E-04  0.97186
   1120.   8.929  3.44E-08  4.31E-06  0.00E+00  0.00E+00  0.00E+00  0.00E+00  3.44E-08  4.31E-06  2.80E-04  0.97657
   1122.   8.913  4.10E-08  5.17E-06  0.00E+00  0.00E+00  0.00E+00  0.00E+00  4.10E-08  5.17E-06  2.80E-04  0.97203
   1124.   8.897  4.53E-08  5.72E-06  0.00E+00  0.00E+00  0.00E+00  0.00E+00  4.53E-08  5.72E-06  2.80E-04  0.96902
   1126.   8.881  4.21E-08  5.34E-06  0.00E+00  0.00E+00  0.00E+00  0.00E+00  4.21E-08  5.34E-06  2.80E-04  0.97081
   1128.   8.865  3.75E-08  4.77E-06  0.00E+00  0.00E+00  0.00E+00  0.00E+00  3.75E-08  4.77E-06  2.80E-04  0.97412
   1130.   8.850  3.85E-08  4.92E-06  0.00E+00  0.00E+00  0.00E+00  0.00E+00  3.85E-08  4.92E-06  2.80E-04  0.97381
   1132.   8.834  3.20E-08  4.11E-06  0.00E+00  0.00E+00  0.00E+00  0.00E+00  3.20E-08  4.11E-06  2.81E-04  0.97814
   1134.   8.818  3.38E-08  4.35E-06  0.00E+00  0.00E+00  0.00E+00  0.00E+00  3.38E-08  4.35E-06  2.81E-04  0.97681
   1136.   8.803  3.15E-08  4.07E-06  0.00E+00  0.00E+00  0.00E+00  0.00E+00  3.15E-08  4.07E-06  2.81E-04  0.97837
   1138.   8.787  2.83E-08  3.66E-06  0.00E+00  0.00E+00  0.00E+00  0.00E+00  2.83E-08  3.66E-06  2.81E-04  0.98062
   1140.   8.772  2.02E-08  2.62E-06  0.00E+00  0.00E+00  0.00E+00  0.00E+00  2.02E-08  2.62E-06  2.81E-04  0.98609
   1142.   8.757  2.07E-08  2.70E-06  0.00E+00  0.00E+00  0.00E+00  0.00E+00  2.07E-08  2.70E-06  2.81E-04  0.98543
   1144.   8.741  2.10E-08  2.74E-06  0.00E+00  0.00E+00  0.00E+00  0.00E+00  2.10E-08  2.74E-06  2.81E-04  0.98507
   1146.   8.726  1.90E-08  2.49E-06  0.00E+00  0.00E+00  0.00E+00  0.00E+00  1.90E-08  2.49E-06  2.81E-04  0.98631
   1148.   8.711  2.04E-08  2.69E-06  0.00E+00  0.00E+00  0.00E+00  0.00E+00  2.04E-08  2.69E-06  2.81E-04  0.98522
   1150.   8.696  1.87E-08  2.47E-06  0.00E+00  0.00E+00  0.00E+00  0.00E+00  1.87E-08  2.47E-06  2.81E-04  0.98623
   1152.   8.681  1.49E-08  1.98E-06  0.00E+00  0.00E+00  0.00E+00  0.00E+00  1.49E-08  1.98E-06  2.81E-04  0.98872
   1154.   8.666  1.43E-08  1.90E-06  0.00E+00  0.00E+00  0.00E+00  0.00E+00  1.43E-08  1.90E-06  2.81E-04  0.98905
   1156.   8.651  1.68E-08  2.24E-06  0.00E+00  0.00E+00  0.00E+00  0.00E+00  1.68E-08  2.24E-06  2.81E-04  0.98712
   1158.   8.636  1.44E-08  1.93E-06  0.00E+00  0.00E+00  0.00E+00  0.00E+00  1.44E-08  1.93E-06  2.81E-04  0.98877
   1160.   8.621  1.45E-08  1.95E-06  0.00E+00  0.00E+00  0.00E+00  0.00E+00  1.45E-08  1.95E-06  2.81E-04  0.98873
   1162.   8.606  1.21E-08  1.64E-06  0.00E+00  0.00E+00  0.00E+00  0.00E+00  1.21E-08  1.64E-06  2.81E-04  0.99048
   1164.   8.591  1.20E-08  1.63E-06  0.00E+00  0.00E+00  0.00E+00  0.00E+00  1.20E-08  1.63E-06  2.81E-04  0.99066
   1166.   8.576  1.06E-08  1.44E-06  0.00E+00  0.00E+00  0.00E+00  0.00E+00  1.06E-08  1.44E-06  2.81E-04  0.99173
   1168.   8.562  9.70E-09  1.32E-06  0.00E+00  0.00E+00  0.00E+00  0.00E+00  9.70E-09  1.32E-06  2.81E-04  0.99254
   1170.   8.547  8.11E-09  1.11E-06  0.00E+00  0.00E+00  0.00E+00  0.00E+00  8.11E-09  1.11E-06  2.81E-04  0.99361
   1172.   8.532  1.04E-08  1.42E-06  0.00E+00  0.00E+00  0.00E+00  0.00E+00  1.04E-08  1.42E-06  2.81E-04  0.99165
   1174.   8.518  7.99E-09  1.10E-06  0.00E+00  0.00E+00  0.00E+00  0.00E+00  7.99E-09  1.10E-06  2.81E-04  0.99347
   1176.   8.503  8.22E-09  1.14E-06  0.00E+00  0.00E+00  0.00E+00  0.00E+00  8.22E-09  1.14E-06  2.81E-04  0.99308
   1178.   8.489  7.55E-09  1.05E-06  0.00E+00  0.00E+00  0.00E+00  0.00E+00  7.55E-09  1.05E-06  2.81E-04  0.99349
   1180.   8.475  7.04E-09  9.81E-07  0.00E+00  0.00E+00  0.00E+00  0.00E+00  7.04E-09  9.81E-07  2.81E-04  0.99396
   1182.   8.460  5.98E-09  8.35E-07  0.00E+00  0.00E+00  0.00E+00  0.00E+00  5.98E-09  8.35E-07  2.81E-04  0.99477
   1184.   8.446  6.02E-09  8.45E-07  0.00E+00  0.00E+00  0.00E+00  0.00E+00  6.02E-09  8.45E-07  2.81E-04  0.99454
   1186.   8.432  5.39E-09  7.59E-07  0.00E+00  0.00E+00  0.00E+00  0.00E+00  5.39E-09  7.59E-07  2.81E-04  0.99524
   1188.   8.418  4.42E-09  6.23E-07  0.00E+00  0.00E+00  0.00E+00  0.00E+00  4.42E-09  6.23E-07  2.81E-04  0.99605
   1190.   8.403  4.25E-09  6.02E-07  0.00E+00  0.00E+00  0.00E+00  0.00E+00  4.25E-09  6.02E-07  2.81E-04  0.99610
   1192.   8.389  3.96E-09  5.63E-07  0.00E+00  0.00E+00  0.00E+00  0.00E+00  3.96E-09  5.63E-07  2.81E-04  0.99635
   1194.   8.375  3.07E-09  4.38E-07  0.00E+00  0.00E+00  0.00E+00  0.00E+00  3.07E-09  4.38E-07  2.81E-04  0.99718
   1196.   8.361  2.64E-09  3.78E-07  0.00E+00  0.00E+00  0.00E+00  0.00E+00  2.64E-09  3.78E-07  2.81E-04  0.99755
   1198.   8.347  2.65E-09  3.80E-07  0.00E+00  0.00E+00  0.00E+00  0.00E+00  2.65E-09  3.80E-07  2.81E-04  0.99752
1                                             RADIANCE(WATTS/CM2-STER-XXX)
0  FREQ   WAVLEN    PATH THERMAL      SURFACE EMISSION    SURFACE REFLECTED     TOTAL RADIANCE   INTEGRAL    TOTAL
  (CM-1) (MICRN)    (CM-1)   (MICRN)    (CM-1)   (MICRN)    (CM-1)   (MICRN)    (CM-1)   (MICRN)    (CM-1)   TRANS

   1200.   8.333  2.18E-09  3.14E-07  0.00E+00  0.00E+00  0.00E+00  0.00E+00  2.18E-09  3.14E-07  2.81E-04  0.99793
   1202.   8.319  2.11E-09  3.05E-07  0.00E+00  0.00E+00  0.00E+00  0.00E+00  2.11E-09  3.05E-07  2.81E-04  0.99794
   1204.   8.306  1.85E-09  2.69E-07  0.00E+00  0.00E+00  0.00E+00  0.00E+00  1.85E-09  2.69E-07  2.81E-04  0.99814
   1206.   8.292  1.56E-09  2.27E-07  0.00E+00  0.00E+00  0.00E+00  0.00E+00  1.56E-09  2.27E-07  2.81E-04  0.99844
   1208.   8.278  1.35E-09  1.98E-07  0.00E+00  0.00E+00  0.00E+00  0.00E+00  1.35E-09  1.98E-07  2.81E-04  0.99863
   1210.   8.264  1.94E-09  2.84E-07  0.00E+00  0.00E+00  0.00E+00  0.00E+00  1.94E-09  2.84E-07  2.81E-04  0.99797
   1212.   8.251  2.57E-09  3.78E-07  0.00E+00  0.00E+00  0.00E+00  0.00E+00  2.57E-09  3.78E-07  2.81E-04  0.99735
   1214.   8.237  1.00E-09  1.48E-07  0.00E+00  0.00E+00  0.00E+00  0.00E+00  1.00E-09  1.48E-07  2.81E-04  0.99891
   1216.   8.224  1.98E-09  2.93E-07  0.00E+00  0.00E+00  0.00E+00  0.00E+00  1.98E-09  2.93E-07  2.81E-04  0.99776
   1218.   8.210  1.82E-09  2.70E-07  0.00E+00  0.00E+00  0.00E+00  0.00E+00  1.82E-09  2.70E-07  2.81E-04  0.99797
   1220.   8.197  3.70E-09  5.51E-07  0.00E+00  0.00E+00  0.00E+00  0.00E+00  3.70E-09  5.51E-07  2.81E-04  0.99573
   1222.   8.183  3.24E-09  4.84E-07  0.00E+00  0.00E+00  0.00E+00  0.00E+00  3.24E-09  4.84E-07  2.81E-04  0.99623
   1224.   8.170  2.16E-09  3.24E-07  0.00E+00  0.00E+00  0.00E+00  0.00E+00  2.16E-09  3.24E-07  2.81E-04  0.99757
   1226.   8.157  2.17E-09  3.27E-07  0.00E+00  0.00E+00  0.00E+00  0.00E+00  2.17E-09  3.27E-07  2.81E-04  0.99749
   1228.   8.143  2.58E-09  3.89E-07  0.00E+00  0.00E+00  0.00E+00  0.00E+00  2.58E-09  3.89E-07  2.81E-04  0.99683
   1230.   8.130  5.76E-09  8.71E-07  0.00E+00  0.00E+00  0.00E+00  0.00E+00  5.76E-09  8.71E-07  2.81E-04  0.99301
   1232.   8.117  1.49E-09  2.25E-07  0.00E+00  0.00E+00  0.00E+00  0.00E+00  1.49E-09  2.25E-07  2.81E-04  0.99814
   1234.   8.104  1.49E-09  2.27E-07  0.00E+00  0.00E+00  0.00E+00  0.00E+00  1.49E-09  2.27E-07  2.81E-04  0.99813
   1236.   8.091  8.39E-09  1.28E-06  0.00E+00  0.00E+00  0.00E+00  0.00E+00  8.39E-09  1.28E-06  2.81E-04  0.98925
   1238.   8.078  6.43E-09  9.86E-07  0.00E+00  0.00E+00  0.00E+00  0.00E+00  6.43E-09  9.86E-07  2.81E-04  0.99147
   1240.   8.065  4.74E-09  7.29E-07  0.00E+00  0.00E+00  0.00E+00  0.00E+00  4.74E-09  7.29E-07  2.81E-04  0.99367
   1242.   8.052  9.02E-09  1.39E-06  0.00E+00  0.00E+00  0.00E+00  0.00E+00  9.02E-09  1.39E-06  2.81E-04  0.98788
   1244.   8.039  6.65E-09  1.03E-06  0.00E+00  0.00E+00  0.00E+00  0.00E+00  6.65E-09  1.03E-06  2.82E-04  0.99069
   1246.   8.026  1.09E-08  1.69E-06  0.00E+00  0.00E+00  0.00E+00  0.00E+00  1.09E-08  1.69E-06  2.82E-04  0.98381
   1248.   8.013  1.42E-08  2.21E-06  0.00E+00  0.00E+00  0.00E+00  0.00E+00  1.42E-08  2.21E-06  2.82E-04  0.97881
   1250.   8.000  8.66E-09  1.35E-06  0.00E+00  0.00E+00  0.00E+00  0.00E+00  8.66E-09  1.35E-06  2.82E-04  0.98726
   1252.   7.987  6.30E-09  9.88E-07  0.00E+00  0.00E+00  0.00E+00  0.00E+00  6.30E-09  9.88E-07  2.82E-04  0.99062
   1254.   7.974  2.11E-08  3.32E-06  0.00E+00  0.00E+00  0.00E+00  0.00E+00  2.11E-08  3.32E-06  2.82E-04  0.96716
   1256.   7.962  1.09E-08  1.72E-06  0.00E+00  0.00E+00  0.00E+00  0.00E+00  1.09E-08  1.72E-06  2.82E-04  0.98305
   1258.   7.949  9.59E-09  1.52E-06  0.00E+00  0.00E+00  0.00E+00  0.00E+00  9.59E-09  1.52E-06  2.82E-04  0.98490
   1260.   7.937  2.41E-08  3.82E-06  0.00E+00  0.00E+00  0.00E+00  0.00E+00  2.41E-08  3.82E-06  2.82E-04  0.96009
   1262.   7.924  2.51E-08  4.00E-06  0.00E+00  0.00E+00  0.00E+00  0.00E+00  2.51E-08  4.00E-06  2.82E-04  0.95662
   1264.   7.911  1.74E-08  2.77E-06  0.00E+00  0.00E+00  0.00E+00  0.00E+00  1.74E-08  2.77E-06  2.82E-04  0.96998
   1266.   7.899  2.15E-08  3.45E-06  0.00E+00  0.00E+00  0.00E+00  0.00E+00  2.15E-08  3.45E-06  2.82E-04  0.96193
   1268.   7.886  3.17E-08  5.10E-06  0.00E+00  0.00E+00  0.00E+00  0.00E+00  3.17E-08  5.10E-06  2.82E-04  0.94147
   1270.   7.874  2.45E-08  3.95E-06  0.00E+00  0.00E+00  0.00E+00  0.00E+00  2.45E-08  3.95E-06  2.82E-04  0.95525
   1272.   7.862  2.67E-08  4.31E-06  0.00E+00  0.00E+00  0.00E+00  0.00E+00  2.67E-08  4.31E-06  2.82E-04  0.95150
   1274.   7.849  2.33E-08  3.77E-06  0.00E+00  0.00E+00  0.00E+00  0.00E+00  2.33E-08  3.77E-06  2.82E-04  0.95630
   1276.   7.837  2.85E-08  4.65E-06  0.00E+00  0.00E+00  0.00E+00  0.00E+00  2.85E-08  4.65E-06  2.82E-04  0.94535
   1278.   7.825  1.93E-08  3.15E-06  0.00E+00  0.00E+00  0.00E+00  0.00E+00  1.93E-08  3.15E-06  2.82E-04  0.96331
   1280.   7.813  1.38E-08  2.26E-06  0.00E+00  0.00E+00  0.00E+00  0.00E+00  1.38E-08  2.26E-06  2.82E-04  0.97533
   1282.   7.800  2.85E-08  4.69E-06  0.00E+00  0.00E+00  0.00E+00  0.00E+00  2.85E-08  4.69E-06  2.82E-04  0.94393
   1284.   7.788  1.50E-08  2.47E-06  0.00E+00  0.00E+00  0.00E+00  0.00E+00  1.50E-08  2.47E-06  2.82E-04  0.97080
   1286.   7.776  8.79E-09  1.45E-06  0.00E+00  0.00E+00  0.00E+00  0.00E+00  8.79E-09  1.45E-06  2.82E-04  0.98511
   1288.   7.764  3.02E-08  5.00E-06  0.00E+00  0.00E+00  0.00E+00  0.00E+00  3.02E-08  5.00E-06  2.82E-04  0.94017
   1290.   7.752  2.14E-08  3.56E-06  0.00E+00  0.00E+00  0.00E+00  0.00E+00  2.14E-08  3.56E-06  2.82E-04  0.95946
   1292.   7.740  2.10E-08  3.50E-06  0.00E+00  0.00E+00  0.00E+00  0.00E+00  2.10E-08  3.50E-06  2.82E-04  0.96000
   1294.   7.728  3.40E-08  5.69E-06  0.00E+00  0.00E+00  0.00E+00  0.00E+00  3.40E-08  5.69E-06  2.83E-04  0.93357
   1296.   7.716  3.06E-08  5.14E-06  0.00E+00  0.00E+00  0.00E+00  0.00E+00  3.06E-08  5.14E-06  2.83E-04  0.94037
   1298.   7.704  3.69E-08  6.21E-06  0.00E+00  0.00E+00  0.00E+00  0.00E+00  3.69E-08  6.21E-06  2.83E-04  0.92943
1                                             RADIANCE(WATTS/CM2-STER-XXX)
0  FREQ   WAVLEN    PATH THERMAL      SURFACE EMISSION    SURFACE REFLECTED     TOTAL RADIANCE   INTEGRAL    TOTAL
  (CM-1) (MICRN)    (CM-1)   (MICRN)    (CM-1)   (MICRN)    (CM-1)   (MICRN)    (CM-1)   (MICRN)    (CM-1)   TRANS

   1300.   7.692  3.82E-08  6.45E-06  0.00E+00  0.00E+00  0.00E+00  0.00E+00  3.82E-08  6.45E-06  2.83E-04  0.92302
   1302.   7.680  4.82E-08  8.17E-06  0.00E+00  0.00E+00  0.00E+00  0.00E+00  4.82E-08  8.17E-06  2.83E-04  0.89745
   1304.   7.669  6.83E-08  1.16E-05  0.00E+00  0.00E+00  0.00E+00  0.00E+00  6.83E-08  1.16E-05  2.83E-04  0.84780
   1306.   7.657  8.59E-08  1.46E-05  0.00E+00  0.00E+00  0.00E+00  0.00E+00  8.59E-08  1.46E-05  2.83E-04  0.80407
   1308.   7.645  1.40E-08  2.40E-06  0.00E+00  0.00E+00  0.00E+00  0.00E+00  1.40E-08  2.40E-06  2.83E-04  0.97328
   1310.   7.634  1.26E-08  2.16E-06  0.00E+00  0.00E+00  0.00E+00  0.00E+00  1.26E-08  2.16E-06  2.83E-04  0.97430
   1312.   7.622  1.31E-08  2.26E-06  0.00E+00  0.00E+00  0.00E+00  0.00E+00  1.31E-08  2.26E-06  2.83E-04  0.97417
   1314.   7.610  9.36E-09  1.62E-06  0.00E+00  0.00E+00  0.00E+00  0.00E+00  9.36E-09  1.62E-06  2.83E-04  0.98342
   1316.   7.599  1.06E-08  1.83E-06  0.00E+00  0.00E+00  0.00E+00  0.00E+00  1.06E-08  1.83E-06  2.83E-04  0.97886
   1318.   7.587  1.08E-08  1.88E-06  0.00E+00  0.00E+00  0.00E+00  0.00E+00  1.08E-08  1.88E-06  2.83E-04  0.97890
   1320.   7.576  7.95E-09  1.38E-06  0.00E+00  0.00E+00  0.00E+00  0.00E+00  7.95E-09  1.38E-06  2.83E-04  0.98622
   1322.   7.564  1.43E-08  2.50E-06  0.00E+00  0.00E+00  0.00E+00  0.00E+00  1.43E-08  2.50E-06  2.83E-04  0.96552
   1324.   7.553  4.47E-09  7.84E-07  0.00E+00  0.00E+00  0.00E+00  0.00E+00  4.47E-09  7.84E-07  2.83E-04  0.99118
   1326.   7.541  1.41E-08  2.48E-06  0.00E+00  0.00E+00  0.00E+00  0.00E+00  1.41E-08  2.48E-06  2.83E-04  0.96509
   1328.   7.530  1.21E-08  2.13E-06  0.00E+00  0.00E+00  0.00E+00  0.00E+00  1.21E-08  2.13E-06  2.83E-04  0.96936
   1330.   7.519  2.58E-09  4.57E-07  0.00E+00  0.00E+00  0.00E+00  0.00E+00  2.58E-09  4.57E-07  2.83E-04  0.99485
   1332.   7.508  1.99E-08  3.53E-06  0.00E+00  0.00E+00  0.00E+00  0.00E+00  1.99E-08  3.53E-06  2.83E-04  0.94806
   1334.   7.496  1.04E-08  1.85E-06  0.00E+00  0.00E+00  0.00E+00  0.00E+00  1.04E-08  1.85E-06  2.83E-04  0.97392
   1336.   7.485  9.37E-09  1.67E-06  0.00E+00  0.00E+00  0.00E+00  0.00E+00  9.37E-09  1.67E-06  2.83E-04  0.97857
   1338.   7.474  2.36E-08  4.22E-06  0.00E+00  0.00E+00  0.00E+00  0.00E+00  2.36E-08  4.22E-06  2.83E-04  0.94381
   1340.   7.463  1.18E-08  2.11E-06  0.00E+00  0.00E+00  0.00E+00  0.00E+00  1.18E-08  2.11E-06  2.84E-04  0.98086
   1342.   7.452  2.45E-08  4.41E-06  0.00E+00  0.00E+00  0.00E+00  0.00E+00  2.45E-08  4.41E-06  2.84E-04  0.93478
   1344.   7.440  9.37E-09  1.69E-06  0.00E+00  0.00E+00  0.00E+00  0.00E+00  9.37E-09  1.69E-06  2.84E-04  0.97599
   1346.   7.429  1.17E-08  2.12E-06  0.00E+00  0.00E+00  0.00E+00  0.00E+00  1.17E-08  2.12E-06  2.84E-04  0.97013
   1348.   7.418  1.71E-08  3.12E-06  0.00E+00  0.00E+00  0.00E+00  0.00E+00  1.71E-08  3.12E-06  2.84E-04  0.95697
   1350.   7.407  6.58E-09  1.20E-06  0.00E+00  0.00E+00  0.00E+00  0.00E+00  6.58E-09  1.20E-06  2.84E-04  0.98502
   1352.   7.396  1.38E-08  2.53E-06  0.00E+00  0.00E+00  0.00E+00  0.00E+00  1.38E-08  2.53E-06  2.84E-04  0.96573
   1354.   7.386  8.80E-09  1.61E-06  0.00E+00  0.00E+00  0.00E+00  0.00E+00  8.80E-09  1.61E-06  2.84E-04  0.97880
   1356.   7.375  1.34E-08  2.47E-06  0.00E+00  0.00E+00  0.00E+00  0.00E+00  1.34E-08  2.47E-06  2.84E-04  0.96842
   1358.   7.364  7.13E-09  1.32E-06  0.00E+00  0.00E+00  0.00E+00  0.00E+00  7.13E-09  1.32E-06  2.84E-04  0.98381
   1360.   7.353  9.26E-09  1.71E-06  0.00E+00  0.00E+00  0.00E+00  0.00E+00  9.26E-09  1.71E-06  2.84E-04  0.97954
   1362.   7.342  1.13E-08  2.09E-06  0.00E+00  0.00E+00  0.00E+00  0.00E+00  1.13E-08  2.09E-06  2.84E-04  0.97604
   1364.   7.331  9.72E-09  1.81E-06  0.00E+00  0.00E+00  0.00E+00  0.00E+00  9.72E-09  1.81E-06  2.84E-04  0.97954
   1366.   7.321  4.39E-09  8.19E-07  0.00E+00  0.00E+00  0.00E+00  0.00E+00  4.39E-09  8.19E-07  2.84E-04  0.99039
   1368.   7.310  5.81E-09  1.09E-06  0.00E+00  0.00E+00  0.00E+00  0.00E+00  5.81E-09  1.09E-06  2.84E-04  0.98807
   1370.   7.299  4.42E-09  8.29E-07  0.00E+00  0.00E+00  0.00E+00  0.00E+00  4.42E-09  8.29E-07  2.84E-04  0.99128
   1372.   7.289  2.39E-09  4.50E-07  0.00E+00  0.00E+00  0.00E+00  0.00E+00  2.39E-09  4.50E-07  2.84E-04  0.99524
   1374.   7.278  9.32E-09  1.76E-06  0.00E+00  0.00E+00  0.00E+00  0.00E+00  9.32E-09  1.76E-06  2.84E-04  0.97891
   1376.   7.267  3.37E-09  6.37E-07  0.00E+00  0.00E+00  0.00E+00  0.00E+00  3.37E-09  6.37E-07  2.84E-04  0.99242
   1378.   7.257  2.94E-09  5.58E-07  0.00E+00  0.00E+00  0.00E+00  0.00E+00  2.94E-09  5.58E-07  2.84E-04  0.99492
   1380.   7.246  1.83E-09  3.48E-07  0.00E+00  0.00E+00  0.00E+00  0.00E+00  1.83E-09  3.48E-07  2.84E-04  0.99679
   1382.   7.236  8.45E-10  1.61E-07  0.00E+00  0.00E+00  0.00E+00  0.00E+00  8.45E-10  1.61E-07  2.84E-04  0.99835
   1384.   7.225  7.48E-10  1.43E-07  0.00E+00  0.00E+00  0.00E+00  0.00E+00  7.48E-10  1.43E-07  2.84E-04  0.99848
   1386.   7.215  2.51E-09  4.81E-07  0.00E+00  0.00E+00  0.00E+00  0.00E+00  2.51E-09  4.81E-07  2.84E-04  0.99558
   1388.   7.205  7.39E-09  1.42E-06  0.00E+00  0.00E+00  0.00E+00  0.00E+00  7.39E-09  1.42E-06  2.84E-04  0.98067
   1390.   7.194  6.46E-10  1.25E-07  0.00E+00  0.00E+00  0.00E+00  0.00E+00  6.46E-10  1.25E-07  2.84E-04  0.99885
   1392.   7.184  5.31E-10  1.03E-07  0.00E+00  0.00E+00  0.00E+00  0.00E+00  5.31E-10  1.03E-07  2.84E-04  0.99906
   1394.   7.174  8.11E-09  1.58E-06  0.00E+00  0.00E+00  0.00E+00  0.00E+00  8.11E-09  1.58E-06  2.84E-04  0.97757
   1396.   7.163  4.07E-09  7.93E-07  0.00E+00  0.00E+00  0.00E+00  0.00E+00  4.07E-09  7.93E-07  2.84E-04  0.98964
   1398.   7.153  5.93E-09  1.16E-06  0.00E+00  0.00E+00  0.00E+00  0.00E+00  5.93E-09  1.16E-06  2.84E-04  0.98598
1                                             RADIANCE(WATTS/CM2-STER-XXX)
0  FREQ   WAVLEN    PATH THERMAL      SURFACE EMISSION    SURFACE REFLECTED     TOTAL RADIANCE   INTEGRAL    TOTAL
  (CM-1) (MICRN)    (CM-1)   (MICRN)    (CM-1)   (MICRN)    (CM-1)   (MICRN)    (CM-1)   (MICRN)    (CM-1)   TRANS

   1400.   7.143  3.07E-09  6.01E-07  0.00E+00  0.00E+00  0.00E+00  0.00E+00  3.07E-09  6.01E-07  2.84E-04  0.99090
   1402.   7.133  2.09E-10  4.10E-08  0.00E+00  0.00E+00  0.00E+00  0.00E+00  2.09E-10  4.10E-08  2.84E-04  0.99960
   1404.   7.123  2.40E-09  4.73E-07  0.00E+00  0.00E+00  0.00E+00  0.00E+00  2.40E-09  4.73E-07  2.84E-04  0.99351
   1406.   7.112  2.31E-09  4.57E-07  0.00E+00  0.00E+00  0.00E+00  0.00E+00  2.31E-09  4.57E-07  2.84E-04  0.99369
   1408.   7.102  1.97E-10  3.91E-08  0.00E+00  0.00E+00  0.00E+00  0.00E+00  1.97E-10  3.91E-08  2.84E-04  0.99958
   1410.   7.092  9.65E-10  1.92E-07  0.00E+00  0.00E+00  0.00E+00  0.00E+00  9.65E-10  1.92E-07  2.84E-04  0.99831
   1412.   7.082  2.09E-09  4.16E-07  0.00E+00  0.00E+00  0.00E+00  0.00E+00  2.09E-09  4.16E-07  2.84E-04  0.99617
   1414.   7.072  3.29E-10  6.57E-08  0.00E+00  0.00E+00  0.00E+00  0.00E+00  3.29E-10  6.57E-08  2.84E-04  0.99930
   1416.   7.062  3.73E-09  7.49E-07  0.00E+00  0.00E+00  0.00E+00  0.00E+00  3.73E-09  7.49E-07  2.84E-04  0.99192
   1418.   7.052  6.19E-09  1.24E-06  0.00E+00  0.00E+00  0.00E+00  0.00E+00  6.19E-09  1.24E-06  2.84E-04  0.98222
   1420.   7.042  1.08E-08  2.17E-06  0.00E+00  0.00E+00  0.00E+00  0.00E+00  1.08E-08  2.17E-06  2.84E-04  0.96336
   1422.   7.032  2.83E-10  5.72E-08  0.00E+00  0.00E+00  0.00E+00  0.00E+00  2.83E-10  5.72E-08  2.84E-04  0.99933
   1424.   7.022  6.24E-09  1.26E-06  0.00E+00  0.00E+00  0.00E+00  0.00E+00  6.24E-09  1.26E-06  2.84E-04  0.98269
   1426.   7.013  4.31E-10  8.77E-08  0.00E+00  0.00E+00  0.00E+00  0.00E+00  4.31E-10  8.77E-08  2.84E-04  0.99894
   1428.   7.003  7.59E-10  1.55E-07  0.00E+00  0.00E+00  0.00E+00  0.00E+00  7.59E-10  1.55E-07  2.84E-04  0.99856
   1430.   6.993  4.80E-09  9.81E-07  0.00E+00  0.00E+00  0.00E+00  0.00E+00  4.80E-09  9.81E-07  2.84E-04  0.98360
   1432.   6.983  1.63E-09  3.35E-07  0.00E+00  0.00E+00  0.00E+00  0.00E+00  1.63E-09  3.35E-07  2.84E-04  0.99667
   1434.   6.974  1.53E-09  3.14E-07  0.00E+00  0.00E+00  0.00E+00  0.00E+00  1.53E-09  3.14E-07  2.84E-04  0.99663
   1436.   6.964  9.67E-09  1.99E-06  0.00E+00  0.00E+00  0.00E+00  0.00E+00  9.67E-09  1.99E-06  2.84E-04  0.96629
   1438.   6.954  5.53E-09  1.14E-06  0.00E+00  0.00E+00  0.00E+00  0.00E+00  5.53E-09  1.14E-06  2.84E-04  0.97930
   1440.   6.944  3.41E-10  7.06E-08  0.00E+00  0.00E+00  0.00E+00  0.00E+00  3.41E-10  7.06E-08  2.84E-04  0.99903
   1442.   6.935  3.59E-10  7.47E-08  0.00E+00  0.00E+00  0.00E+00  0.00E+00  3.59E-10  7.47E-08  2.84E-04  0.99900
   1444.   6.925  2.76E-10  5.75E-08  0.00E+00  0.00E+00  0.00E+00  0.00E+00  2.76E-10  5.75E-08  2.84E-04  0.99928
   1446.   6.916  1.02E-09  2.14E-07  0.00E+00  0.00E+00  0.00E+00  0.00E+00  1.02E-09  2.14E-07  2.84E-04  0.99752
   1448.   6.906  4.93E-09  1.03E-06  0.00E+00  0.00E+00  0.00E+00  0.00E+00  4.93E-09  1.03E-06  2.84E-04  0.98228
   1450.   6.897  4.92E-10  1.03E-07  0.00E+00  0.00E+00  0.00E+00  0.00E+00  4.92E-10  1.03E-07  2.84E-04  0.99857
   1452.   6.887  2.90E-09  6.12E-07  0.00E+00  0.00E+00  0.00E+00  0.00E+00  2.90E-09  6.12E-07  2.84E-04  0.99260
   1454.   6.878  2.25E-09  4.77E-07  0.00E+00  0.00E+00  0.00E+00  0.00E+00  2.25E-09  4.77E-07  2.84E-04  0.99277
   1456.   6.868  9.88E-09  2.09E-06  0.00E+00  0.00E+00  0.00E+00  0.00E+00  9.88E-09  2.09E-06  2.84E-04  0.95960
   1458.   6.859  1.59E-08  3.37E-06  0.00E+00  0.00E+00  0.00E+00  0.00E+00  1.59E-08  3.37E-06  2.84E-04  0.93420
   1460.   6.849  2.41E-09  5.15E-07  0.00E+00  0.00E+00  0.00E+00  0.00E+00  2.41E-09  5.15E-07  2.84E-04  0.99146
   1462.   6.840  2.50E-10  5.35E-08  0.00E+00  0.00E+00  0.00E+00  0.00E+00  2.50E-10  5.35E-08  2.84E-04  0.99919
   1464.   6.831  4.01E-09  8.59E-07  0.00E+00  0.00E+00  0.00E+00  0.00E+00  4.01E-09  8.59E-07  2.84E-04  0.98225
   1466.   6.821  4.32E-09  9.28E-07  0.00E+00  0.00E+00  0.00E+00  0.00E+00  4.32E-09  9.28E-07  2.84E-04  0.98132
   1468.   6.812  4.39E-10  9.47E-08  0.00E+00  0.00E+00  0.00E+00  0.00E+00  4.39E-10  9.47E-08  2.84E-04  0.99877
   1470.   6.803  1.15E-09  2.48E-07  0.00E+00  0.00E+00  0.00E+00  0.00E+00  1.15E-09  2.48E-07  2.84E-04  0.99652
   1472.   6.793  8.08E-09  1.75E-06  0.00E+00  0.00E+00  0.00E+00  0.00E+00  8.08E-09  1.75E-06  2.84E-04  0.96418
   1474.   6.784  6.60E-09  1.43E-06  0.00E+00  0.00E+00  0.00E+00  0.00E+00  6.60E-09  1.43E-06  2.84E-04  0.97045
   1476.   6.775  6.26E-09  1.36E-06  0.00E+00  0.00E+00  0.00E+00  0.00E+00  6.26E-09  1.36E-06  2.84E-04  0.97478
   1478.   6.766  2.12E-10  4.64E-08  0.00E+00  0.00E+00  0.00E+00  0.00E+00  2.12E-10  4.64E-08  2.84E-04  0.99921
   1480.   6.757  1.40E-09  3.08E-07  0.00E+00  0.00E+00  0.00E+00  0.00E+00  1.40E-09  3.08E-07  2.84E-04  0.99514
   1482.   6.748  1.60E-09  3.52E-07  0.00E+00  0.00E+00  0.00E+00  0.00E+00  1.60E-09  3.52E-07  2.84E-04  0.99462
   1484.   6.739  4.44E-10  9.79E-08  0.00E+00  0.00E+00  0.00E+00  0.00E+00  4.44E-10  9.79E-08  2.84E-04  0.99842
   1486.   6.729  3.85E-09  8.50E-07  0.00E+00  0.00E+00  0.00E+00  0.00E+00  3.85E-09  8.50E-07  2.84E-04  0.98446
   1488.   6.720  4.49E-09  9.93E-07  0.00E+00  0.00E+00  0.00E+00  0.00E+00  4.49E-09  9.93E-07  2.84E-04  0.98192
   1490.   6.711  8.09E-09  1.80E-06  0.00E+00  0.00E+00  0.00E+00  0.00E+00  8.09E-09  1.80E-06  2.84E-04  0.96641
   1492.   6.702  2.73E-09  6.07E-07  0.00E+00  0.00E+00  0.00E+00  0.00E+00  2.73E-09  6.07E-07  2.84E-04  0.98743
   1494.   6.693  3.21E-10  7.16E-08  0.00E+00  0.00E+00  0.00E+00  0.00E+00  3.21E-10  7.16E-08  2.84E-04  0.99871
   1496.   6.684  7.15E-09  1.60E-06  0.00E+00  0.00E+00  0.00E+00  0.00E+00  7.15E-09  1.60E-06  2.84E-04  0.96272
   1498.   6.676  4.06E-09  9.12E-07  0.00E+00  0.00E+00  0.00E+00  0.00E+00  4.06E-09  9.12E-07  2.84E-04  0.97994
1                                             RADIANCE(WATTS/CM2-STER-XXX)
0  FREQ   WAVLEN    PATH THERMAL      SURFACE EMISSION    SURFACE REFLECTED     TOTAL RADIANCE   INTEGRAL    TOTAL
  (CM-1) (MICRN)    (CM-1)   (MICRN)    (CM-1)   (MICRN)    (CM-1)   (MICRN)    (CM-1)   (MICRN)    (CM-1)   TRANS

   1500.   6.667  4.49E-09  1.01E-06  0.00E+00  0.00E+00  0.00E+00  0.00E+00  4.49E-09  1.01E-06  2.84E-04  0.97899
0INTEGRATED ABSORPTION FROM  100 TO 1500 CM-1 =     93.09 CM-1
 AVERAGE TRANSMITTANCE =0.9335

0INTEGRATED RADIANCE =  2.843E-04 WATTS CM-2 STER-1
 MINIMUM RADIANCE    =  1.973E-10 WATTS CM-2 STER-1 (CM-1)-1 AT     1408.0 CM-1
 MAXIMUM RADIANCE    =  3.519E-06 WATTS CM-2 STER-1 (CM-1)-1 AT      668.0 CM-1
 BOUNDARY TEMPERATURE =       0.00 K
 BOUNDARY EMISSIVITY =       0.980
0 CARD 5 *****    0
