 *****  MODTRAN3 Version 1.3  12/1/95  *****
0 CARD 1  *****T   6    3    1    0    0    0    0    0    0    0    0    0   -1   0.000  -1.00
0 CARD 2  *****    2    0    0    0    0    0     0.000     0.000     0.000     0.000     0.000
0 CARD 3  *****    20.000     0.000     0.000     0.000     0.000     0.000    0
0 CARD 4  *****       100      1500         2         2
0 PROGRAM WILL COMPUTE RADIANCE                
0 ATMOSPHERIC MODEL
          TEMPERATURE =    6     1976 U S STANDARD   
          WATER VAPOR =    6     1976 U S STANDARD   
          OZONE       =    6     1976 U S STANDARD   
                      M4 =     6 M5 =     6 M6 =     6 MDEF =     1
0 AEROSOL MODEL
          REGIME                  AEROSOL TYPE             PROFILE                  SEASON

          BOUNDARY LAYER (0-2 KM) RURAL                      5.0 KM VIS AT SEA LEVEL
          TROPOSPHERE  (2-10KM)   TROPOSPHERIC             TROPOSPHERIC             SPRING-SUMMER       
          STRATOSPHERE (10-30KM)  BACKGROUND STRATO        BACKGROUND STRATO        SPRING-SUMMER       
          UPPER ATMOS (30-100KM)  METEORIC DUST            NORMAL              
0 SLANT PATH TO SPACE
          H1    =     20.000 KM
          HMIN  =      0.000 KM
          ANGLE =      0.000 DEG
0 FREQUENCY RANGE
             IV1 =       100 CM-1  (    100.00 MICROMETERS)
             IV2 =      1500 CM-1  (      6.67 MICROMETERS)
             IDV =         2 CM-1
           IFWHM =         2 CM-1
1
  ATMOSPHERIC PROFILES

   I     Z       P       T        N2       CNTMSLF MOL SCAT     N-1     O3 (UV)  O2 (UV)
        (KM)    (MB)    (K)            (MOL/CM2 KM)   (-)       (-)  (ATM CM/KM) (ATM CM/KM)

   1     0.00 1013.000  288.2  8.243E-01 1.566E+20 9.475E-01 2.722E-04 2.519E-03 3.535E+04
   2     1.00  898.800  281.7  6.792E-01 7.926E+19 8.601E-01 2.471E-04 2.519E-03 3.079E+04
   3     2.00  795.000  275.2  5.568E-01 3.781E+19 7.788E-01 2.238E-04 2.519E-03 2.678E+04
   4     3.00  701.200  268.7  4.543E-01 1.457E+19 7.035E-01 2.022E-04 2.333E-03 2.327E+04
   5     4.00  616.600  262.2  3.690E-01 5.440E+18 6.340E-01 1.823E-04 2.146E-03 2.021E+04
   6     5.00  540.500  255.7  2.981E-01 1.842E+18 5.698E-01 1.638E-04 2.146E-03 1.753E+04
   7     6.00  472.200  249.2  2.396E-01 6.495E+17 5.108E-01 1.469E-04 2.099E-03 1.519E+04
   8     7.00  411.100  242.7  1.914E-01 1.983E+17 4.566E-01 1.313E-04 2.286E-03 1.315E+04
   9     8.00  356.500  236.2  1.520E-01 6.471E+16 4.069E-01 1.170E-04 2.426E-03 1.137E+04
  10     9.00  308.000  229.7  1.200E-01 9.518E+15 3.615E-01 1.040E-04 3.312E-03 9.815E+03
  11    10.00  265.000  223.3  9.396E-02 1.456E+15 3.199E-01 9.201E-05 4.198E-03 8.456E+03
  12    11.00  227.000  216.8  7.314E-02 3.023E+14 2.823E-01 8.118E-05 6.062E-03 7.276E+03
  13    12.00  194.000  216.7  5.347E-02 6.151E+13 2.413E-01 6.941E-05 7.464E-03 6.050E+03
  14    13.00  165.800  216.7  3.906E-02 1.456E+13 2.063E-01 5.932E-05 7.927E-03 5.045E+03
  15    14.00  141.700  216.7  2.853E-02 3.173E+12 1.763E-01 5.070E-05 8.861E-03 4.220E+03
  16    15.00  121.100  216.7  2.084E-02 1.649E+12 1.507E-01 4.333E-05 9.793E-03 3.540E+03
  17    16.00  103.500  216.7  1.522E-02 7.519E+11 1.288E-01 3.703E-05 1.120E-02 2.977E+03
  18    17.00   88.500  216.7  1.113E-02 5.223E+11 1.101E-01 3.166E-05 1.306E-02 2.510E+03
  19    18.00   75.650  216.7  8.131E-03 3.767E+11 9.411E-02 2.707E-05 1.493E-02 2.119E+03
  20    19.00   64.670  216.7  5.942E-03 2.789E+11 8.045E-02 2.314E-05 1.632E-02 1.792E+03
  21    20.00   55.290  216.7  4.343E-03 2.092E+11 6.878E-02 1.978E-05 1.773E-02 1.519E+03
  22    21.00   47.290  217.6  3.151E-03 1.576E+11 5.859E-02 1.685E-05 1.773E-02 1.283E+03
  23    22.00   40.470  218.6  2.287E-03 1.196E+11 4.991E-02 1.435E-05 1.819E-02 1.086E+03
  24    23.00   34.670  219.6  1.663E-03 9.288E+10 4.256E-02 1.224E-05 1.773E-02 9.203E+02
  25    24.00   29.720  220.6  1.211E-03 7.090E+10 3.632E-02 1.044E-05 1.679E-02 7.814E+02
  26    25.00   25.490  221.6  8.828E-04 5.473E+10 3.101E-02 8.918E-06 1.586E-02 6.643E+02
  27    30.00   11.970  226.5  1.863E-04 1.317E+10 1.425E-02 4.097E-06 9.330E-03 3.011E+02
  28    35.00    5.746  236.5  3.938E-05 2.994E+09 6.550E-03 1.884E-06 5.130E-03 1.375E+02
  29    40.00    2.871  250.4  8.771E-06 7.012E+08 3.091E-03 8.889E-07 2.255E-03 6.472E+01
  30    45.00    1.491  264.2  2.125E-06 1.837E+08 1.521E-03 4.375E-07 7.982E-04 3.182E+01
  31    50.00    0.798  270.7  5.795E-07 5.009E+07 7.945E-04 2.285E-07 2.461E-04 1.660E+01
  32    70.00    0.052  219.6  3.770E-09 1.462E+05 6.408E-05 1.843E-08 1.921E-06 1.338E+00
  33   100.00    0.000  195.1  1.795E-13 9.093E-02 4.422E-07 1.272E-10 1.767E-08 7.070E-03
1
  ATMOSPHERIC PROFILES

   I     Z       P       T      CNTMFRN     HNO3    AEROSOL 1 AEROSOL 2 AEROSOL 3 AEROSOL 4 AER1*RH   CIRRUS         RH
        (KM)    (MB)    (K)   MOL/CM2 KM ATM CM/KM   (-)       (-)       (-)       (-)       (-)       (-)      (PERCNT)

   1     0.00 1013.000  288.2  2.007E+22 4.738E-06 7.700E-01 0.000E+00 0.000E+00 0.000E+00 3.074E+00 0.000E+00 4.584E+01
   2     1.00  898.800  281.7  1.299E+22 5.126E-06 7.700E-01 0.000E+00 0.000E+00 0.000E+00 3.028E+00 0.000E+00 4.898E+01
   3     2.00  795.000  275.2  8.133E+21 5.397E-06 6.210E-02 0.000E+00 0.000E+00 0.000E+00 2.405E-01 0.000E+00 5.194E+01
   4     3.00  701.200  268.7  4.567E+21 5.565E-06 0.000E+00 3.460E-02 0.000E+00 0.000E+00 0.000E+00 0.000E+00 5.071E+01
   5     4.00  616.600  262.2  2.518E+21 5.623E-06 0.000E+00 1.850E-02 0.000E+00 0.000E+00 0.000E+00 0.000E+00 5.004E+01
   6     5.00  540.500  255.7  1.318E+21 5.556E-06 0.000E+00 9.310E-03 0.000E+00 0.000E+00 0.000E+00 0.000E+00 4.836E+01
   7     6.00  472.200  249.2  7.018E+20 5.670E-06 0.000E+00 7.710E-03 0.000E+00 0.000E+00 0.000E+00 0.000E+00 4.918E+01
   8     7.00  411.100  242.7  3.468E+20 5.754E-06 0.000E+00 6.230E-03 0.000E+00 0.000E+00 0.000E+00 0.000E+00 4.814E+01
   9     8.00  356.500  236.2  1.765E+20 5.656E-06 0.000E+00 3.370E-03 0.000E+00 0.000E+00 0.000E+00 0.000E+00 5.054E+01
  10     9.00  308.000  229.7  6.016E+19 5.531E-06 0.000E+00 1.820E-03 0.000E+00 0.000E+00 0.000E+00 0.000E+00 3.708E+01
  11    10.00  265.000  223.3  2.083E+19 5.567E-06 0.000E+00 1.140E-03 0.000E+00 0.000E+00 0.000E+00 0.000E+00 2.869E+01
  12    11.00  227.000  216.8  8.374E+18 5.702E-06 0.000E+00 0.000E+00 7.990E-04 0.000E+00 0.000E+00 0.000E+00 2.743E+01
  13    12.00  194.000  216.7  3.230E+18 5.816E-06 0.000E+00 0.000E+00 6.410E-04 0.000E+00 0.000E+00 0.000E+00 1.252E+01
  14    13.00  165.800  216.7  1.343E+18 5.693E-06 0.000E+00 0.000E+00 5.170E-04 0.000E+00 0.000E+00 0.000E+00 6.092E+00
  15    14.00  141.700  216.7  5.358E+17 5.870E-06 0.000E+00 0.000E+00 4.420E-04 0.000E+00 0.000E+00 0.000E+00 2.844E+00
  16    15.00  121.100  216.7  3.301E+17 6.809E-06 0.000E+00 0.000E+00 3.950E-04 0.000E+00 0.000E+00 0.000E+00 2.050E+00
  17    16.00  103.500  216.7  1.905E+17 9.489E-06 0.000E+00 0.000E+00 3.820E-04 0.000E+00 0.000E+00 0.000E+00 1.384E+00
  18    17.00   88.500  216.7  1.358E+17 1.442E-05 0.000E+00 0.000E+00 4.250E-04 0.000E+00 0.000E+00 0.000E+00 1.154E+00
  19    18.00   75.650  216.7  9.855E+16 1.986E-05 0.000E+00 0.000E+00 5.200E-04 0.000E+00 0.000E+00 0.000E+00 9.798E-01
  20    19.00   64.670  216.7  7.249E+16 2.550E-05 0.000E+00 0.000E+00 5.810E-04 0.000E+00 0.000E+00 0.000E+00 8.431E-01
  21    20.00   55.290  216.7  5.368E+16 2.889E-05 0.000E+00 0.000E+00 5.890E-04 0.000E+00 0.000E+00 0.000E+00 7.302E-01
  22    21.00   47.290  217.6  3.969E+16 2.894E-05 0.000E+00 0.000E+00 5.020E-04 0.000E+00 0.000E+00 0.000E+00 5.702E-01
  23    22.00   40.470  218.6  2.946E+16 2.725E-05 0.000E+00 0.000E+00 4.200E-04 0.000E+00 0.000E+00 0.000E+00 4.422E-01
  24    23.00   34.670  219.6  2.213E+16 2.443E-05 0.000E+00 0.000E+00 3.000E-04 0.000E+00 0.000E+00 0.000E+00 3.472E-01
  25    24.00   29.720  220.6  1.650E+16 2.121E-05 0.000E+00 0.000E+00 1.980E-04 0.000E+00 0.000E+00 0.000E+00 2.707E-01
  26    25.00   25.490  221.6  1.238E+16 1.740E-05 0.000E+00 0.000E+00 1.310E-04 0.000E+00 0.000E+00 0.000E+00 2.125E-01
  27    30.00   11.970  226.5  2.790E+15 5.328E-06 0.000E+00 0.000E+00 3.320E-05 0.000E+00 0.000E+00 0.000E+00 6.101E-02
  28    35.00    5.746  236.5  6.115E+14 1.074E-06 0.000E+00 0.000E+00 0.000E+00 1.640E-05 0.000E+00 0.000E+00 1.056E-02
  29    40.00    2.871  250.4  1.397E+14 1.647E-07 0.000E+00 0.000E+00 0.000E+00 7.990E-06 0.000E+00 0.000E+00 1.460E-03
  30    45.00    1.491  264.2  3.518E+13 1.841E-08 0.000E+00 0.000E+00 0.000E+00 4.010E-06 0.000E+00 0.000E+00 2.502E-04
  31    50.00    0.798  270.7  9.595E+12 4.409E-09 0.000E+00 0.000E+00 0.000E+00 2.100E-06 0.000E+00 0.000E+00 8.159E-05
  32    70.00    0.052  219.6  4.181E+10 2.095E-10 0.000E+00 0.000E+00 0.000E+00 1.600E-07 0.000E+00 0.000E+00 4.357E-04
  33   100.00    0.000  195.1  2.275E+05 1.207E-12 0.000E+00 0.000E+00 0.000E+00 9.310E-10 0.000E+00 0.000E+00 8.646E-06
1
  ATMOSPHERIC PROFILES

   I      Z       P       T      H2O      O3       CO2      CO       CH4      N2O      O2       NH3      NO       NO2      SO2
         (KM)    (MB)    (K)  (                                 ATM CM/KM                                                     )
   1     0.00 1013.000  288.2  7.33E+02 2.52E-03 3.55E+01 1.42E-02 1.61E-01 3.03E-02 1.98E+04 4.73E-05 2.84E-05 2.18E-06 2.84E-05
   2     1.00  898.800  281.7  5.22E+02 2.52E-03 3.22E+01 1.25E-02 1.46E-01 2.75E-02 1.80E+04 4.30E-05 2.58E-05 1.98E-06 2.36E-05
   3     2.00  795.000  275.2  3.60E+02 2.52E-03 2.92E+01 1.09E-02 1.32E-01 2.49E-02 1.63E+04 3.60E-05 2.33E-05 1.79E-06 1.84E-05
   4     3.00  701.200  268.7  2.24E+02 2.33E-03 2.64E+01 9.48E-03 1.20E-01 2.25E-02 1.47E+04 2.67E-05 2.11E-05 1.62E-06 1.34E-05
   5     4.00  616.600  262.2  1.37E+02 2.15E-03 2.38E+01 8.31E-03 1.08E-01 2.03E-02 1.32E+04 1.82E-05 1.90E-05 1.46E-06 9.25E-06
   6     5.00  540.500  255.7  7.95E+01 2.15E-03 2.14E+01 7.42E-03 9.68E-02 1.82E-02 1.19E+04 1.16E-05 1.71E-05 1.31E-06 6.72E-06
   7     6.00  472.200  249.2  4.72E+01 2.10E-03 1.91E+01 6.57E-03 8.68E-02 1.63E-02 1.07E+04 7.45E-06 1.53E-05 1.17E-06 4.96E-06
   8     7.00  411.100  242.7  2.61E+01 2.29E-03 1.71E+01 5.69E-03 7.75E-02 1.46E-02 9.54E+03 4.51E-06 1.37E-05 1.05E-06 3.79E-06
   9     8.00  356.500  236.2  1.49E+01 2.43E-03 1.52E+01 4.82E-03 6.90E-02 1.30E-02 8.50E+03 2.63E-06 1.22E-05 9.35E-07 2.93E-06
  10     9.00  308.000  229.7  5.72E+00 3.31E-03 1.35E+01 3.95E-03 6.12E-02 1.15E-02 7.55E+03 1.36E-06 1.08E-05 8.38E-07 2.37E-06
  11    10.00  265.000  223.3  2.24E+00 4.20E-03 1.20E+01 3.18E-03 5.39E-02 1.02E-02 6.68E+03 6.49E-07 9.59E-06 7.61E-07 1.94E-06
  12    11.00  227.000  216.8  1.02E+00 6.06E-03 1.06E+01 2.53E-03 4.72E-02 8.86E-03 5.90E+03 3.07E-07 8.46E-06 7.39E-07 1.63E-06
  13    12.00  194.000  216.7  4.60E-01 7.46E-03 9.04E+00 1.88E-03 4.01E-02 7.46E-03 5.04E+03 1.52E-07 7.24E-06 7.60E-07 1.35E-06
  14    13.00  165.800  216.7  2.24E-01 7.93E-03 7.73E+00 1.31E-03 3.39E-02 6.28E-03 4.31E+03 6.43E-08 6.16E-06 9.17E-07 1.15E-06
  15    14.00  141.700  216.7  1.04E-01 8.86E-03 6.61E+00 8.85E-04 2.86E-02 5.28E-03 3.68E+03 1.96E-08 5.20E-06 1.32E-06 9.94E-07
  16    15.00  121.100  216.7  7.53E-02 9.79E-03 5.65E+00 5.93E-04 2.42E-02 4.43E-03 3.15E+03 6.73E-09 4.26E-06 2.57E-06 8.66E-07
  17    16.00  103.500  216.7  5.08E-02 1.12E-02 4.83E+00 3.95E-04 2.04E-02 3.70E-03 2.69E+03 2.71E-09 3.45E-06 4.10E-06 7.40E-07
  18    17.00   88.500  216.7  4.24E-02 1.31E-02 4.13E+00 2.74E-04 1.71E-02 3.06E-03 2.30E+03 1.21E-09 2.77E-06 5.71E-06 5.91E-07
  19    18.00   75.650  216.7  3.60E-02 1.49E-02 3.53E+00 1.85E-04 1.43E-02 2.51E-03 1.97E+03 6.30E-10 2.26E-06 7.25E-06 4.50E-07
  20    19.00   64.670  216.7  3.09E-02 1.63E-02 3.01E+00 1.25E-04 1.19E-02 2.03E-03 1.68E+03 3.19E-10 1.96E-06 8.52E-06 3.19E-07
  21    20.00   55.290  216.7  2.68E-02 1.77E-02 2.58E+00 9.15E-05 9.79E-03 1.63E-03 1.44E+03 1.66E-10 1.75E-06 9.55E-06 2.19E-07
  22    21.00   47.290  217.6  2.33E-02 1.77E-02 2.20E+00 7.21E-05 7.93E-03 1.28E-03 1.22E+03 1.12E-10 1.62E-06 1.03E-05 1.56E-07
  23    22.00   40.470  218.6  2.03E-02 1.82E-02 1.87E+00 6.14E-05 6.34E-03 1.02E-03 1.04E+03 8.58E-11 1.53E-06 1.08E-05 1.14E-07
  24    23.00   34.670  219.6  1.79E-02 1.77E-02 1.59E+00 5.56E-05 5.07E-03 8.37E-04 8.89E+02 6.76E-11 1.53E-06 1.10E-05 8.80E-08
  25    24.00   29.720  220.6  1.56E-02 1.68E-02 1.36E+00 5.08E-05 4.06E-03 6.81E-04 7.59E+02 5.23E-11 1.64E-06 1.11E-05 6.90E-08
  26    25.00   25.490  221.6  1.37E-02 1.59E-02 1.16E+00 4.64E-05 3.27E-03 5.44E-04 6.48E+02 3.81E-11 2.12E-06 1.16E-05 5.42E-08
  27    30.00   11.970  226.5  6.73E-03 9.33E-03 5.34E-01 2.43E-05 1.30E-03 2.02E-04 2.98E+02 9.04E-12 3.49E-06 8.77E-06 1.91E-08
  28    35.00    5.746  236.5  3.21E-03 5.13E-03 2.45E-01 1.31E-05 4.88E-04 6.07E-05 1.37E+02 1.19E-12 4.67E-06 4.76E-06 7.59E-09
  29    40.00    2.871  250.4  1.55E-03 2.25E-03 1.16E-01 7.71E-06 1.74E-04 1.39E-05 6.46E+01 9.08E-14 3.46E-06 1.24E-06 4.20E-09
  30    45.00    1.491  264.2  7.94E-04 7.98E-04 5.70E-02 4.93E-06 5.52E-05 2.42E-06 3.18E+01 4.53E-15 1.78E-06 1.75E-07 3.19E-09
  31    50.00    0.798  270.7  4.15E-04 2.46E-04 2.98E-02 3.65E-06 1.67E-05 3.77E-07 1.66E+01 5.66E-16 8.18E-07 3.52E-08 2.83E-09
  32    70.00    0.052  219.6  2.24E-05 1.92E-06 2.40E-03 1.96E-06 9.61E-07 7.36E-09 1.34E+00 1.65E-17 7.36E-08 1.48E-09 2.77E-10
  33   100.00    0.000  195.1  1.77E-08 1.77E-08 9.79E-06 7.48E-07 5.30E-09 1.47E-11 7.07E-03 6.54E-20 9.19E-08 7.51E-12 1.58E-14
1
  ATMOSPHERIC PROFILES

   I      Z       P       T     CFC-11   CFC-12   CFC-13   CFC-14   CFC-22   CFC-113  CFC-114  CFC-115  CLONO2    HNO4    CHCL2F 
                                 CCL4     N2O5  
         (KM)    (MB)    (K)  (                                 ATM CM/KM                                                     )
   1     0.00 1013.000  288.2  1.33E-05 2.27E-05 9.47E-14 9.47E-14 5.68E-06 1.80E-06 1.14E-06 9.47E-14 5.44E-07 4.11E-08 9.47E-14
                               1.23E-05 2.29E-11
   2     1.00  898.800  281.7  1.20E-05 2.06E-05 8.60E-14 8.60E-14 5.15E-06 1.63E-06 1.03E-06 8.60E-14 4.41E-07 1.84E-07 8.60E-14
                               1.12E-05 8.20E-11
   3     2.00  795.000  275.2  1.09E-05 1.87E-05 7.78E-14 7.78E-14 4.66E-06 1.48E-06 9.34E-07 7.78E-14 3.51E-07 2.99E-07 7.78E-14
                               1.01E-05 1.30E-10
   4     3.00  701.200  268.7  9.84E-06 1.69E-05 7.03E-14 7.03E-14 4.21E-06 1.34E-06 8.44E-07 7.03E-14 2.73E-07 3.89E-07 7.03E-14
                               9.14E-06 1.67E-10
   5     4.00  616.600  262.2  8.87E-06 1.52E-05 6.34E-14 6.34E-14 3.79E-06 1.20E-06 7.60E-07 6.34E-14 2.07E-07 4.59E-07 6.34E-14
                               8.24E-06 1.96E-10
   6     5.00  540.500  255.7  7.97E-06 1.37E-05 5.69E-14 5.69E-14 3.40E-06 1.08E-06 6.83E-07 5.69E-14 1.57E-07 1.03E-06 5.69E-14
                               7.39E-06 2.05E-10
   7     6.00  472.200  249.2  7.15E-06 1.23E-05 5.10E-14 5.10E-14 3.05E-06 9.70E-07 6.13E-07 5.10E-14 1.15E-07 1.48E-06 5.10E-14
                               6.61E-06 2.11E-10
   8     7.00  411.100  242.7  6.39E-06 1.10E-05 4.56E-14 4.56E-14 2.73E-06 8.67E-07 5.48E-07 4.56E-14 7.96E-08 1.82E-06 4.56E-14
                               5.90E-06 2.12E-10
   9     8.00  356.500  236.2  5.69E-06 9.76E-06 4.07E-14 4.07E-14 2.43E-06 7.73E-07 4.88E-07 4.07E-14 5.04E-08 2.07E-06 4.07E-14
                               5.25E-06 2.10E-10
  10     9.00  308.000  229.7  5.05E-06 8.66E-06 3.61E-14 3.61E-14 2.15E-06 6.86E-07 4.33E-07 3.61E-14 4.36E-08 1.77E-06 3.61E-14
                               4.66E-06 2.08E-10
  11    10.00  265.000  223.3  4.46E-06 7.66E-06 3.20E-14 3.20E-14 1.91E-06 6.06E-07 3.84E-07 3.20E-14 3.76E-08 1.51E-06 3.20E-14
                               4.12E-06 2.03E-10
  12    11.00  227.000  216.8  3.93E-06 6.75E-06 2.82E-14 2.82E-14 1.68E-06 5.34E-07 3.38E-07 2.82E-14 3.22E-08 1.28E-06 2.82E-14
                               3.64E-06 1.97E-10
  13    12.00  194.000  216.7  3.35E-06 5.76E-06 2.41E-14 2.41E-14 1.44E-06 4.56E-07 2.89E-07 2.41E-14 2.68E-08 1.05E-06 2.41E-14
                               3.11E-06 1.83E-10
  14    13.00  165.800  216.7  2.78E-06 4.85E-06 2.06E-14 2.06E-14 1.21E-06 3.82E-07 2.45E-07 2.06E-14 1.65E-07 1.17E-06 2.06E-14
                               2.58E-06 9.08E-09
  15    14.00  141.700  216.7  2.31E-06 4.09E-06 1.76E-14 1.76E-14 1.03E-06 3.21E-07 2.07E-07 1.76E-14 2.63E-07 1.22E-06 1.76E-14
                               2.13E-06 1.54E-08
  16    15.00  121.100  216.7  1.91E-06 3.44E-06 1.51E-14 1.51E-14 8.70E-07 2.69E-07 1.75E-07 1.51E-14 3.28E-07 1.24E-06 1.51E-14
                               1.76E-06 1.97E-08
  17    16.00  103.500  216.7  1.58E-06 2.90E-06 1.29E-14 1.29E-14 7.36E-07 2.25E-07 1.48E-07 1.29E-14 3.69E-07 1.22E-06 1.29E-14
                               1.45E-06 2.24E-08
  18    17.00   88.500  216.7  1.24E-06 2.36E-06 1.10E-14 1.10E-14 6.12E-07 1.82E-07 1.23E-07 1.10E-14 1.12E-06 1.57E-06 1.10E-14
                               1.12E-06 9.66E-08
  19    18.00   75.650  216.7  9.56E-07 1.92E-06 9.40E-15 9.40E-15 5.08E-07 1.46E-07 1.02E-07 9.40E-15 1.64E-06 1.79E-06 9.40E-15
                               8.52E-07 1.49E-07
  20    19.00   64.670  216.7  7.31E-07 1.56E-06 8.04E-15 8.04E-15 4.22E-07 1.17E-07 8.47E-08 8.04E-15 1.99E-06 1.91E-06 8.04E-15
                               6.38E-07 1.84E-07
  21    20.00   55.290  216.7  5.51E-07 1.26E-06 6.87E-15 6.87E-15 3.50E-07 9.35E-08 7.01E-08 6.87E-15 2.20E-06 1.96E-06 6.87E-15
                               4.69E-07 2.06E-07
  22    21.00   47.290  217.6  4.02E-07 1.00E-06 5.85E-15 5.85E-15 2.86E-07 7.25E-08 5.71E-08 5.85E-15 2.69E-06 2.06E-06 5.85E-15
                               3.35E-07 2.43E-07
  23    22.00   40.470  218.6  2.85E-07 7.88E-07 4.99E-15 4.99E-15 2.34E-07 5.57E-08 4.64E-08 4.99E-15 2.99E-06 2.09E-06 4.99E-15
                               2.30E-07 2.64E-07
  24    23.00   34.670  219.6  1.94E-07 6.17E-07 4.25E-15 4.25E-15 1.91E-07 4.22E-08 3.77E-08 4.25E-15 3.15E-06 2.06E-06 4.25E-15
                               1.49E-07 2.75E-07
  25    24.00   29.720  220.6  1.23E-07 4.79E-07 3.63E-15 3.63E-15 1.56E-07 3.16E-08 3.06E-08 3.63E-15 3.19E-06 2.00E-06 3.63E-15
                               8.71E-08 2.76E-07
  26    25.00   25.490  221.6  8.45E-08 3.68E-07 3.10E-15 3.10E-15 1.27E-07 2.36E-08 2.46E-08 3.10E-15 3.01E-06 1.80E-06 3.10E-15
                               5.84E-08 2.39E-07
  27    30.00   11.970  226.5  5.56E-09 8.38E-08 1.42E-15 1.42E-15 4.31E-08 4.15E-09 8.02E-09 1.42E-15 1.62E-06 7.26E-07 1.42E-15
                               2.50E-09 7.86E-08
  28    35.00    5.746  236.5  1.30E-10 1.40E-08 6.55E-16 6.55E-16 1.35E-08 4.69E-10 2.39E-09 6.55E-16 3.43E-07 9.61E-08 6.55E-16
                               2.59E-11 7.08E-09
  29    40.00    2.871  250.4  5.71E-13 1.88E-09 3.09E-16 3.09E-16 4.29E-09 3.80E-11 7.17E-10 3.09E-16 1.32E-08 3.08E-09 3.09E-16
                               1.22E-14 6.58E-11
  30    45.00    1.491  264.2  1.40E-14 3.24E-10 1.52E-16 1.52E-16 1.58E-09 4.89E-12 2.46E-10 1.52E-16 2.55E-10 1.33E-10 1.52E-16
                               8.47E-17 5.99E-13
  31    50.00    0.798  270.7  4.74E-16 6.76E-11 7.94E-17 7.94E-17 6.97E-10 7.86E-13 9.92E-11 7.94E-17 3.71E-12 6.06E-12 7.94E-17
                               8.68E-19 4.99E-15
  32    70.00    0.052  219.6  3.26E-21 2.50E-13 6.40E-18 6.40E-18 4.60E-11 1.13E-15 3.75E-12 6.40E-18 4.63E-19 2.06E-16 6.40E-18
                               6.32E-26 5.25E-23
  33   100.00    0.000  195.1  1.37E-30 1.10E-18 4.42E-20 4.42E-20 7.91E-14 5.79E-22 9.41E-16 4.42E-20 3.57E-35 1.47E-31 4.42E-20
                               2.25E-38 0.00E+00


 CASE 3A: GIVEN H1,H2=SPACE,ANGLE



 SLANT PATH PARAMETERS IN STANDARD FORM

          H1      =     20.000 KM
          H2      =    100.000 KM
          ANGLE   =      0.000 DEG
          PHI     =    180.000 DEG
          HMIN    =     20.000 KM
          LEN     =          0
1CALCULATION OF THE REFRACTED PATH THROUGH THE ATMOSPHERE


  I       ALTITUDE        THETA  DRANGE    RANGE    DBETA     BETA     PHI     DBEND  BENDING    PBAR    TBAR   RHOBAR
      FROM       TO
      (KM)      (KM)      (DEG)    (KM)     (KM)    (DEG)    (DEG)    (DEG)    (DEG)    (DEG)    (MB)    (K)  (GM CM-3)

          H1 TO H2

  1   20.000   21.000    0.000    1.000    1.000    0.000    0.000  180.000    0.000    0.000   51.293  217.14 8.21E-05
  2   21.000   22.000    0.000    1.000    2.000    0.000    0.000  180.000    0.000    0.000   43.883  218.09 7.00E-05
  3   22.000   23.000    0.000    1.000    3.000    0.000    0.000  180.000    0.000    0.000   37.572  219.09 5.96E-05
  4   23.000   24.000    0.000    1.000    4.000    0.000    0.000  180.000    0.000    0.000   32.197  220.09 5.09E-05
  5   24.000   25.000    0.000    1.000    5.000    0.000    0.000  180.000    0.000    0.000   27.607  221.09 4.34E-05
  6   25.000   30.000    0.000    5.000   10.000    0.000    0.000  180.000    0.000    0.000   18.754  223.73 2.79E-05
  7   30.000   35.000    0.000    5.000   15.000    0.000    0.000  180.000    0.000    0.000    8.880  230.82 1.28E-05
  8   35.000   40.000    0.000    5.000   20.000    0.000    0.000  180.000    0.000    0.000    4.322  242.52 5.95E-06
  9   40.000   45.000    0.000    5.000   25.000    0.000    0.000  180.000    0.000    0.000    2.187  256.43 2.86E-06
 10   45.000   50.000    0.000    5.000   30.000    0.000    0.000  180.000    0.000    0.000    1.146  267.09 1.45E-06
 11   50.000   70.000    0.000   20.000   50.000    0.000    0.000  180.000    0.000    0.000    0.414  254.07 3.75E-07
 12   70.000  100.000    0.000   30.000   80.000    0.000    0.000  180.000    0.000    0.000    0.026  214.67 1.65E-08




1CUMULATIVE ABSORBER AMOUNTS FOR THE PATH FROM H1 TO Z

  J     Z        TBAR     HNO3        O3 UV      CNTMSLF1   CNTMSLF2    CNTMFRN      O2
       (KM)       (K)   (ATM CM)    (ATM CM)    (MOL CM-2)  (MOL CM-2)  (MOL CM-2)(MOL CM-2)

  1   21.000   217.14   2.891E-05   1.773E-02   1.822E+11   3.991E+11   4.633E+16   1.398E+03
  2   22.000   218.09   5.700E-05   3.569E-02   3.200E+11   6.973E+11   8.065E+16   2.579E+03
  3   23.000   219.09   8.282E-05   5.364E-02   4.257E+11   9.231E+11   1.063E+17   3.580E+03
  4   24.000   220.09   1.056E-04   7.090E-02   5.071E+11   1.095E+12   1.255E+17   4.429E+03
  5   25.000   221.09   1.248E-04   8.722E-02   5.695E+11   1.225E+12   1.398E+17   5.150E+03
  6   30.000   223.73   1.758E-04   1.488E-01   7.154E+11   1.518E+12   1.720E+17   7.445E+03
  7   35.000   230.82   1.891E-04   1.839E-01   7.498E+11   1.580E+12   1.791E+17   8.489E+03
  8   40.000   242.52   1.915E-04   2.014E-01   7.577E+11   1.592E+12   1.807E+17   8.972E+03
  9   45.000   256.43   1.919E-04   2.084E-01   7.596E+11   1.594E+12   1.811E+17   9.203E+03
 10   50.000   267.09   1.919E-04   2.107E-01   7.601E+11   1.594E+12   1.812E+17   9.320E+03
 11   70.000   254.07   1.920E-04   2.117E-01   7.603E+11   1.594E+12   1.813E+17   9.442E+03
 12  100.000   214.67   1.920E-04   2.117E-01   7.603E+11   1.594E+12   1.813E+17   9.449E+03



1 J     Z       N2 CONT    MOL SCAT       AER 1       AER 2       AER 3       AER 4       CIRRUS
       (KM)

  1   21.000   3.715E-03   6.355E-02   0.000E+00   0.000E+00   5.443E-04   0.000E+00   0.000E+00
  2   22.000   6.411E-03   1.177E-01   0.000E+00   0.000E+00   1.004E-03   0.000E+00   0.000E+00
  3   23.000   8.370E-03   1.638E-01   0.000E+00   0.000E+00   1.361E-03   0.000E+00   0.000E+00
  4   24.000   9.795E-03   2.032E-01   0.000E+00   0.000E+00   1.606E-03   0.000E+00   0.000E+00
  5   25.000   1.083E-02   2.368E-01   0.000E+00   0.000E+00   1.768E-03   0.000E+00   0.000E+00
  6   30.000   1.307E-02   3.445E-01   0.000E+00   0.000E+00   2.125E-03   0.000E+00   0.000E+00
  7   35.000   1.354E-02   3.940E-01   0.000E+00   0.000E+00   2.208E-03   4.100E-05   0.000E+00
  8   40.000   1.365E-02   4.171E-01   0.000E+00   0.000E+00   2.208E-03   9.948E-05   0.000E+00
  9   45.000   1.367E-02   4.281E-01   0.000E+00   0.000E+00   2.208E-03   1.283E-04   0.000E+00
 10   50.000   1.368E-02   4.337E-01   0.000E+00   0.000E+00   2.208E-03   1.431E-04   0.000E+00
 11   70.000   1.368E-02   4.395E-01   0.000E+00   0.000E+00   2.208E-03   1.582E-04   0.000E+00
 12  100.000   1.368E-02   4.399E-01   0.000E+00   0.000E+00   2.208E-03   1.591E-04   0.000E+00



1  J    Z       H2O       O3        CO2       CO        CH4       N2O       O2        NH3       NO        NO2       SO2
      (KM)    (                                                      ATM CM                                             )

   1   21.00  2.50E-02  1.77E-02  2.38E+00  8.14E-05  8.83E-03  1.45E-03  1.33E+03  1.37E-10  1.69E-06  9.93E-06  1.86E-07
   2   22.00  4.67E-02  3.57E-02  4.41E+00  1.48E-04  1.59E-02  2.60E-03  2.46E+03  2.36E-10  3.26E-06  2.05E-05  3.20E-07
   3   23.00  6.58E-02  5.36E-02  6.14E+00  2.07E-04  2.16E-02  3.52E-03  3.42E+03  3.12E-10  4.79E-06  3.13E-05  4.20E-07
   4   24.00  8.25E-02  7.09E-02  7.61E+00  2.60E-04  2.62E-02  4.28E-03  4.24E+03  3.72E-10  6.38E-06  4.24E-05  4.98E-07
   5   25.00  9.71E-02  8.72E-02  8.87E+00  3.08E-04  2.98E-02  4.89E-03  4.95E+03  4.17E-10  8.26E-06  5.37E-05  5.60E-07
   6   30.00  1.46E-01  1.49E-01  1.29E+01  4.79E-04  4.05E-02  6.61E-03  7.20E+03  5.18E-10  2.23E-05  1.04E-04  7.28E-07
   7   35.00  1.70E-01  1.84E-01  1.48E+01  5.70E-04  4.46E-02  7.20E-03  8.23E+03  5.37E-10  4.27E-05  1.37E-04  7.90E-07
   8   40.00  1.81E-01  2.01E-01  1.56E+01  6.21E-04  4.62E-02  7.36E-03  8.71E+03  5.39E-10  6.29E-05  1.50E-04  8.19E-07
   9   45.00  1.87E-01  2.08E-01  1.60E+01  6.52E-04  4.67E-02  7.39E-03  8.94E+03  5.39E-10  7.55E-05  1.53E-04  8.37E-07
  10   50.00  1.90E-01  2.11E-01  1.63E+01  6.74E-04  4.68E-02  7.40E-03  9.06E+03  5.39E-10  8.17E-05  1.53E-04  8.52E-07
  11   70.00  1.93E-01  2.12E-01  1.65E+01  7.28E-04  4.69E-02  7.40E-03  9.18E+03  5.39E-10  8.79E-05  1.54E-04  8.74E-07
  12  100.00  1.93E-01  2.12E-01  1.65E+01  7.66E-04  4.70E-02  7.40E-03  9.19E+03  5.39E-10  9.03E-05  1.54E-04  8.75E-07



1  J    Z      CFC-11    CFC-12    CFC-13    CFC-14    CFC-22    CFC-113   CFC-114   CFC-115   CLONO2     HNO4     CHCL2F 
                CCL4      N2O5  
      (KM)    (                                                   ATM CM                                                )

   1   21.00  4.73E-07  1.13E-06  6.35E-15  6.35E-15  3.17E-07  8.25E-08  6.34E-08  6.35E-15  2.45E-06  2.01E-06  6.35E-15
              3.98E-07  2.24E-07
   2   22.00  8.13E-07  2.02E-06  1.18E-14  1.18E-14  5.77E-07  1.46E-07  1.15E-07  1.18E-14  5.29E-06  4.08E-06  1.18E-14
              6.77E-07  4.78E-07
   3   23.00  1.05E-06  2.72E-06  1.64E-14  1.64E-14  7.89E-07  1.95E-07  1.57E-07  1.64E-14  8.36E-06  6.16E-06  1.64E-14
              8.64E-07  7.47E-07
   4   24.00  1.20E-06  3.26E-06  2.03E-14  2.03E-14  9.62E-07  2.32E-07  1.91E-07  2.03E-14  1.15E-05  8.19E-06  2.03E-14
              9.79E-07  1.02E-06
   5   25.00  1.31E-06  3.68E-06  2.37E-14  2.37E-14  1.10E-06  2.59E-07  2.18E-07  2.37E-14  1.46E-05  1.01E-05  2.37E-14
              1.05E-06  1.28E-06
   6   30.00  1.45E-06  4.64E-06  3.44E-14  3.44E-14  1.49E-06  3.15E-07  2.92E-07  3.44E-14  2.59E-05  1.60E-05  3.44E-14
              1.14E-06  2.00E-06
   7   35.00  1.46E-06  4.84E-06  3.94E-14  3.94E-14  1.62E-06  3.23E-07  3.16E-07  3.94E-14  3.00E-05  1.76E-05  3.94E-14
              1.14E-06  2.15E-06
   8   40.00  1.46E-06  4.87E-06  4.17E-14  4.17E-14  1.66E-06  3.24E-07  3.23E-07  4.17E-14  3.05E-05  1.77E-05  4.17E-14
              1.14E-06  2.16E-06
   9   45.00  1.46E-06  4.87E-06  4.28E-14  4.28E-14  1.67E-06  3.24E-07  3.25E-07  4.28E-14  3.05E-05  1.77E-05  4.28E-14
              1.14E-06  2.16E-06
  10   50.00  1.46E-06  4.87E-06  4.33E-14  4.33E-14  1.68E-06  3.24E-07  3.26E-07  4.33E-14  3.05E-05  1.77E-05  4.33E-14
              1.14E-06  2.16E-06
  11   70.00  1.46E-06  4.87E-06  4.39E-14  4.39E-14  1.68E-06  3.24E-07  3.26E-07  4.39E-14  3.05E-05  1.77E-05  4.39E-14
              1.14E-06  2.16E-06
  12  100.00  1.46E-06  4.87E-06  4.40E-14  4.40E-14  1.68E-06  3.24E-07  3.26E-07  4.40E-14  3.05E-05  1.77E-05  4.40E-14
              1.14E-06  2.16E-06


0SUMMARY OF THE GEOMETRY CALCULATION

          H1      =     20.000 KM
          H2      =    100.000 KM
          ANGLE   =      0.000 DEG
          RANGE   =     80.000 KM
          BETA    =      0.000 DEG
          PHI     =    180.000 DEG
          HMIN    =     20.000 KM
          BENDING =      0.000 DEG
          LEN     =          0




1EQUIVALENT SEA LEVEL TOTAL ABSORBER AMOUNTS

                 HNO3      O3 UV       CNTMSLF1    CNTMSLF2   CNTMFRN
               (ATM CM)   (ATM CM)     (MOL CM-2)  (MOL CM-2)  (MOL CM-2)  (MOL CM-2)

             1.920E-04   2.117E-01   7.603E+11   1.594E+12   1.813E+17


              N2 CONT    MOL SCAT       AER 1       AER 2       AER 3       AER 4     CIRRUS      MEAN RH
                                                                                                  (PRCNT)

             1.368E-02   4.399E-01   0.000E+00   0.000E+00   2.208E-03   1.591E-04   0.000E+00        0.00


                 H2O        O3          CO2         CO          CH4         N2O          O2
               (                                        ATM CM                            )

             1.927E-01   2.117E-01   1.648E+01   7.656E-04   4.695E-02   7.401E-03   9.188E+03

                 NH3        NO          NO2         SO2
                 (               ATM CM               )

             5.393E-10   9.035E-05   1.536E-04   8.751E-07

             CFC-11      CFC-12      CFC-13      CFC-14      CFC-22      CFC-113     CFC-114
                 (                                      ATM CM                            )

             1.460E-06   4.874E-06   4.396E-14   4.396E-14   1.682E-06   3.242E-07   3.262E-07

             CFC-115     CLONO2       HNO4       CHCL2F       CCL4        N2O5  
                 (                                      ATM CM                            )

             4.396E-14   3.051E-05   1.770E-05   4.396E-14   1.142E-06   2.156E-06
1                                             RADIANCE(WATTS/CM2-STER-XXX)
0  FREQ   WAVLEN    PATH THERMAL      SURFACE EMISSION    SURFACE REFLECTED     TOTAL RADIANCE   INTEGRAL    TOTAL
  (CM-1) (MICRN)    (CM-1)   (MICRN)    (CM-1)   (MICRN)    (CM-1)   (MICRN)    (CM-1)   (MICRN)    (CM-1)   TRANS

    100. 100.000  2.48E-07  2.48E-07  0.00E+00  0.00E+00  0.00E+00  0.00E+00  2.48E-07  2.48E-07  2.48E-07  0.80728
    102.  98.039  1.57E-07  1.63E-07  0.00E+00  0.00E+00  0.00E+00  0.00E+00  1.57E-07  1.63E-07  5.61E-07  0.88085
    104.  96.154  1.31E-07  1.42E-07  0.00E+00  0.00E+00  0.00E+00  0.00E+00  1.31E-07  1.42E-07  8.23E-07  0.90544
    106.  94.340  2.35E-07  2.64E-07  0.00E+00  0.00E+00  0.00E+00  0.00E+00  2.35E-07  2.64E-07  1.29E-06  0.83286
    108.  92.593  7.11E-08  8.29E-08  0.00E+00  0.00E+00  0.00E+00  0.00E+00  7.11E-08  8.29E-08  1.44E-06  0.95139
    110.  90.909  9.25E-08  1.12E-07  0.00E+00  0.00E+00  0.00E+00  0.00E+00  9.25E-08  1.12E-07  1.62E-06  0.93915
    112.  89.286  9.23E-08  1.16E-07  0.00E+00  0.00E+00  0.00E+00  0.00E+00  9.23E-08  1.16E-07  1.81E-06  0.93944
    114.  87.719  8.76E-09  1.14E-08  0.00E+00  0.00E+00  0.00E+00  0.00E+00  8.76E-09  1.14E-08  1.82E-06  0.99469
    116.  86.207  2.21E-08  2.98E-08  0.00E+00  0.00E+00  0.00E+00  0.00E+00  2.21E-08  2.98E-08  1.87E-06  0.98681
    118.  84.746  8.02E-08  1.12E-07  0.00E+00  0.00E+00  0.00E+00  0.00E+00  8.02E-08  1.12E-07  2.03E-06  0.95224
    120.  83.333  1.65E-07  2.37E-07  0.00E+00  0.00E+00  0.00E+00  0.00E+00  1.65E-07  2.37E-07  2.36E-06  0.90454
    122.  81.967  2.76E-07  4.11E-07  0.00E+00  0.00E+00  0.00E+00  0.00E+00  2.76E-07  4.11E-07  2.91E-06  0.84310
    124.  80.645  4.65E-08  7.15E-08  0.00E+00  0.00E+00  0.00E+00  0.00E+00  4.65E-08  7.15E-08  3.00E-06  0.97451
    126.  79.365  2.12E-07  3.36E-07  0.00E+00  0.00E+00  0.00E+00  0.00E+00  2.12E-07  3.36E-07  3.43E-06  0.88676
    128.  78.125  1.94E-07  3.19E-07  0.00E+00  0.00E+00  0.00E+00  0.00E+00  1.94E-07  3.19E-07  3.81E-06  0.89651
    130.  76.923  4.12E-08  6.96E-08  0.00E+00  0.00E+00  0.00E+00  0.00E+00  4.12E-08  6.96E-08  3.90E-06  0.97901
    132.  75.758  3.42E-07  5.97E-07  0.00E+00  0.00E+00  0.00E+00  0.00E+00  3.42E-07  5.97E-07  4.58E-06  0.82859
    134.  74.627  1.77E-07  3.17E-07  0.00E+00  0.00E+00  0.00E+00  0.00E+00  1.77E-07  3.17E-07  4.93E-06  0.91225
    136.  73.529  2.20E-08  4.07E-08  0.00E+00  0.00E+00  0.00E+00  0.00E+00  2.20E-08  4.07E-08  4.98E-06  0.98969
    138.  72.464  1.37E-07  2.60E-07  0.00E+00  0.00E+00  0.00E+00  0.00E+00  1.37E-07  2.60E-07  5.25E-06  0.93631
    140.  71.429  3.44E-07  6.75E-07  0.00E+00  0.00E+00  0.00E+00  0.00E+00  3.44E-07  6.75E-07  5.94E-06  0.84097
    142.  70.423  1.12E-07  2.27E-07  0.00E+00  0.00E+00  0.00E+00  0.00E+00  1.12E-07  2.27E-07  6.17E-06  0.94878
    144.  69.444  7.66E-09  1.59E-08  0.00E+00  0.00E+00  0.00E+00  0.00E+00  7.66E-09  1.59E-08  6.18E-06  0.99671
    146.  68.493  1.43E-08  3.05E-08  0.00E+00  0.00E+00  0.00E+00  0.00E+00  1.43E-08  3.05E-08  6.21E-06  0.99396
    148.  67.568  1.79E-07  3.92E-07  0.00E+00  0.00E+00  0.00E+00  0.00E+00  1.79E-07  3.92E-07  6.57E-06  0.92447
    150.  66.667  5.10E-07  1.15E-06  0.00E+00  0.00E+00  0.00E+00  0.00E+00  5.10E-07  1.15E-06  7.59E-06  0.78731
    152.  65.789  4.38E-07  1.01E-06  0.00E+00  0.00E+00  0.00E+00  0.00E+00  4.38E-07  1.01E-06  8.46E-06  0.81976
    154.  64.935  1.54E-07  3.66E-07  0.00E+00  0.00E+00  0.00E+00  0.00E+00  1.54E-07  3.66E-07  8.77E-06  0.93756
    156.  64.103  1.02E-07  2.48E-07  0.00E+00  0.00E+00  0.00E+00  0.00E+00  1.02E-07  2.48E-07  8.98E-06  0.96046
    158.  63.291  2.67E-07  6.65E-07  0.00E+00  0.00E+00  0.00E+00  0.00E+00  2.67E-07  6.65E-07  9.51E-06  0.89672
    160.  62.500  5.20E-08  1.33E-07  0.00E+00  0.00E+00  0.00E+00  0.00E+00  5.20E-08  1.33E-07  9.61E-06  0.98046
    162.  61.728  4.46E-08  1.17E-07  0.00E+00  0.00E+00  0.00E+00  0.00E+00  4.46E-08  1.17E-07  9.70E-06  0.98349
    164.  60.976  7.50E-09  2.02E-08  0.00E+00  0.00E+00  0.00E+00  0.00E+00  7.50E-09  2.02E-08  9.72E-06  0.99733
    166.  60.241  1.15E-07  3.18E-07  0.00E+00  0.00E+00  0.00E+00  0.00E+00  1.15E-07  3.18E-07  9.95E-06  0.95866
    168.  59.524  9.69E-08  2.74E-07  0.00E+00  0.00E+00  0.00E+00  0.00E+00  9.69E-08  2.74E-07  1.01E-05  0.96550
    170.  58.824  4.87E-07  1.41E-06  0.00E+00  0.00E+00  0.00E+00  0.00E+00  4.87E-07  1.41E-06  1.11E-05  0.82878
    172.  58.140  8.21E-08  2.43E-07  0.00E+00  0.00E+00  0.00E+00  0.00E+00  8.21E-08  2.43E-07  1.13E-05  0.97183
    174.  57.471  2.62E-07  7.92E-07  0.00E+00  0.00E+00  0.00E+00  0.00E+00  2.62E-07  7.92E-07  1.18E-05  0.91092
    176.  56.818  2.01E-07  6.21E-07  0.00E+00  0.00E+00  0.00E+00  0.00E+00  2.01E-07  6.21E-07  1.22E-05  0.93290
    178.  56.180  3.53E-07  1.12E-06  0.00E+00  0.00E+00  0.00E+00  0.00E+00  3.53E-07  1.12E-06  1.29E-05  0.88347
    180.  55.556  1.11E-07  3.60E-07  0.00E+00  0.00E+00  0.00E+00  0.00E+00  1.11E-07  3.60E-07  1.31E-05  0.96432
    182.  54.945  1.17E-07  3.86E-07  0.00E+00  0.00E+00  0.00E+00  0.00E+00  1.17E-07  3.86E-07  1.34E-05  0.96260
    184.  54.348  3.92E-08  1.33E-07  0.00E+00  0.00E+00  0.00E+00  0.00E+00  3.92E-08  1.33E-07  1.34E-05  0.98760
    186.  53.763  1.51E-08  5.21E-08  0.00E+00  0.00E+00  0.00E+00  0.00E+00  1.51E-08  5.21E-08  1.35E-05  0.99545
    188.  53.191  2.67E-07  9.43E-07  0.00E+00  0.00E+00  0.00E+00  0.00E+00  2.67E-07  9.43E-07  1.40E-05  0.91776
    190.  52.632  1.07E-08  3.87E-08  0.00E+00  0.00E+00  0.00E+00  0.00E+00  1.07E-08  3.87E-08  1.40E-05  0.99677
    192.  52.083  5.21E-08  1.92E-07  0.00E+00  0.00E+00  0.00E+00  0.00E+00  5.21E-08  1.92E-07  1.41E-05  0.98452
    194.  51.546  1.65E-07  6.20E-07  0.00E+00  0.00E+00  0.00E+00  0.00E+00  1.65E-07  6.20E-07  1.45E-05  0.95118
    196.  51.020  9.97E-08  3.83E-07  0.00E+00  0.00E+00  0.00E+00  0.00E+00  9.97E-08  3.83E-07  1.47E-05  0.97114
    198.  50.505  5.50E-08  2.16E-07  0.00E+00  0.00E+00  0.00E+00  0.00E+00  5.50E-08  2.16E-07  1.48E-05  0.98431
1                                             RADIANCE(WATTS/CM2-STER-XXX)
0  FREQ   WAVLEN    PATH THERMAL      SURFACE EMISSION    SURFACE REFLECTED     TOTAL RADIANCE   INTEGRAL    TOTAL
  (CM-1) (MICRN)    (CM-1)   (MICRN)    (CM-1)   (MICRN)    (CM-1)   (MICRN)    (CM-1)   (MICRN)    (CM-1)   TRANS

    200.  50.000  6.87E-08  2.75E-07  0.00E+00  0.00E+00  0.00E+00  0.00E+00  6.87E-08  2.75E-07  1.49E-05  0.98089
    202.  49.505  8.11E-07  3.31E-06  0.00E+00  0.00E+00  0.00E+00  0.00E+00  8.11E-07  3.31E-06  1.65E-05  0.77163
    204.  49.020  4.17E-07  1.74E-06  0.00E+00  0.00E+00  0.00E+00  0.00E+00  4.17E-07  1.74E-06  1.74E-05  0.88278
    206.  48.544  2.71E-08  1.15E-07  0.00E+00  0.00E+00  0.00E+00  0.00E+00  2.71E-08  1.15E-07  1.74E-05  0.99269
    208.  48.077  5.13E-07  2.22E-06  0.00E+00  0.00E+00  0.00E+00  0.00E+00  5.13E-07  2.22E-06  1.84E-05  0.86000
    210.  47.619  5.40E-08  2.38E-07  0.00E+00  0.00E+00  0.00E+00  0.00E+00  5.40E-08  2.38E-07  1.86E-05  0.98562
    212.  47.170  8.53E-08  3.83E-07  0.00E+00  0.00E+00  0.00E+00  0.00E+00  8.53E-08  3.83E-07  1.87E-05  0.97753
    214.  46.729  2.78E-07  1.27E-06  0.00E+00  0.00E+00  0.00E+00  0.00E+00  2.78E-07  1.27E-06  1.93E-05  0.92693
    216.  46.296  8.21E-08  3.83E-07  0.00E+00  0.00E+00  0.00E+00  0.00E+00  8.21E-08  3.83E-07  1.94E-05  0.97868
    218.  45.872  8.31E-09  3.95E-08  0.00E+00  0.00E+00  0.00E+00  0.00E+00  8.31E-09  3.95E-08  1.95E-05  0.99793
    220.  45.455  2.28E-08  1.10E-07  0.00E+00  0.00E+00  0.00E+00  0.00E+00  2.28E-08  1.10E-07  1.95E-05  0.99433
    222.  45.045  3.99E-07  1.96E-06  0.00E+00  0.00E+00  0.00E+00  0.00E+00  3.99E-07  1.96E-06  2.03E-05  0.89910
    224.  44.643  1.87E-07  9.40E-07  0.00E+00  0.00E+00  0.00E+00  0.00E+00  1.87E-07  9.40E-07  2.07E-05  0.95321
    226.  44.248  3.93E-07  2.01E-06  0.00E+00  0.00E+00  0.00E+00  0.00E+00  3.93E-07  2.01E-06  2.15E-05  0.90254
    228.  43.860  5.63E-07  2.93E-06  0.00E+00  0.00E+00  0.00E+00  0.00E+00  5.63E-07  2.93E-06  2.26E-05  0.86154
    230.  43.478  4.76E-08  2.52E-07  0.00E+00  0.00E+00  0.00E+00  0.00E+00  4.76E-08  2.52E-07  2.27E-05  0.98858
    232.  43.103  9.51E-08  5.12E-07  0.00E+00  0.00E+00  0.00E+00  0.00E+00  9.51E-08  5.12E-07  2.29E-05  0.97744
    234.  42.735  3.09E-08  1.69E-07  0.00E+00  0.00E+00  0.00E+00  0.00E+00  3.09E-08  1.69E-07  2.29E-05  0.99269
    236.  42.373  5.66E-09  3.15E-08  0.00E+00  0.00E+00  0.00E+00  0.00E+00  5.66E-09  3.15E-08  2.30E-05  0.99872
    238.  42.017  3.31E-09  1.88E-08  0.00E+00  0.00E+00  0.00E+00  0.00E+00  3.31E-09  1.88E-08  2.30E-05  0.99923
    240.  41.667  3.33E-09  1.92E-08  0.00E+00  0.00E+00  0.00E+00  0.00E+00  3.33E-09  1.92E-08  2.30E-05  0.99923
    242.  41.322  6.40E-09  3.75E-08  0.00E+00  0.00E+00  0.00E+00  0.00E+00  6.40E-09  3.75E-08  2.30E-05  0.99857
    244.  40.984  2.16E-07  1.29E-06  0.00E+00  0.00E+00  0.00E+00  0.00E+00  2.16E-07  1.29E-06  2.34E-05  0.95091
    246.  40.650  3.73E-07  2.25E-06  0.00E+00  0.00E+00  0.00E+00  0.00E+00  3.73E-07  2.25E-06  2.42E-05  0.91530
    248.  40.323  4.61E-07  2.84E-06  0.00E+00  0.00E+00  0.00E+00  0.00E+00  4.61E-07  2.84E-06  2.51E-05  0.89597
    250.  40.000  5.66E-08  3.54E-07  0.00E+00  0.00E+00  0.00E+00  0.00E+00  5.66E-08  3.54E-07  2.52E-05  0.98762
    252.  39.683  6.06E-08  3.85E-07  0.00E+00  0.00E+00  0.00E+00  0.00E+00  6.06E-08  3.85E-07  2.53E-05  0.98690
    254.  39.370  8.54E-07  5.51E-06  0.00E+00  0.00E+00  0.00E+00  0.00E+00  8.54E-07  5.51E-06  2.70E-05  0.81135
    256.  39.063  5.45E-08  3.57E-07  0.00E+00  0.00E+00  0.00E+00  0.00E+00  5.45E-08  3.57E-07  2.71E-05  0.98840
    258.  38.760  1.11E-08  7.40E-08  0.00E+00  0.00E+00  0.00E+00  0.00E+00  1.11E-08  7.40E-08  2.72E-05  0.99768
    260.  38.462  3.16E-09  2.13E-08  0.00E+00  0.00E+00  0.00E+00  0.00E+00  3.16E-09  2.13E-08  2.72E-05  0.99933
    262.  38.168  1.52E-08  1.05E-07  0.00E+00  0.00E+00  0.00E+00  0.00E+00  1.52E-08  1.05E-07  2.72E-05  0.99687
    264.  37.879  1.85E-08  1.29E-07  0.00E+00  0.00E+00  0.00E+00  0.00E+00  1.85E-08  1.29E-07  2.72E-05  0.99623
    266.  37.594  1.89E-07  1.34E-06  0.00E+00  0.00E+00  0.00E+00  0.00E+00  1.89E-07  1.34E-06  2.76E-05  0.96027
    268.  37.313  2.16E-08  1.55E-07  0.00E+00  0.00E+00  0.00E+00  0.00E+00  2.16E-08  1.55E-07  2.76E-05  0.99569
    270.  37.037  2.77E-09  2.02E-08  0.00E+00  0.00E+00  0.00E+00  0.00E+00  2.77E-09  2.02E-08  2.77E-05  0.99943
    272.  36.765  1.70E-08  1.26E-07  0.00E+00  0.00E+00  0.00E+00  0.00E+00  1.70E-08  1.26E-07  2.77E-05  0.99668
    274.  36.496  1.79E-08  1.34E-07  0.00E+00  0.00E+00  0.00E+00  0.00E+00  1.79E-08  1.34E-07  2.77E-05  0.99651
    276.  36.232  2.25E-07  1.71E-06  0.00E+00  0.00E+00  0.00E+00  0.00E+00  2.25E-07  1.71E-06  2.82E-05  0.95439
    278.  35.971  5.15E-07  3.98E-06  0.00E+00  0.00E+00  0.00E+00  0.00E+00  5.15E-07  3.98E-06  2.92E-05  0.89540
    280.  35.714  3.38E-07  2.65E-06  0.00E+00  0.00E+00  0.00E+00  0.00E+00  3.38E-07  2.65E-06  2.99E-05  0.93177
    282.  35.461  4.59E-07  3.65E-06  0.00E+00  0.00E+00  0.00E+00  0.00E+00  4.59E-07  3.65E-06  3.08E-05  0.90790
    284.  35.211  2.27E-08  1.83E-07  0.00E+00  0.00E+00  0.00E+00  0.00E+00  2.27E-08  1.83E-07  3.08E-05  0.99567
    286.  34.965  1.77E-08  1.45E-07  0.00E+00  0.00E+00  0.00E+00  0.00E+00  1.77E-08  1.45E-07  3.09E-05  0.99670
    288.  34.722  1.59E-07  1.32E-06  0.00E+00  0.00E+00  0.00E+00  0.00E+00  1.59E-07  1.32E-06  3.12E-05  0.96864
    290.  34.483  1.95E-07  1.64E-06  0.00E+00  0.00E+00  0.00E+00  0.00E+00  1.95E-07  1.64E-06  3.16E-05  0.96187
    292.  34.247  3.20E-08  2.73E-07  0.00E+00  0.00E+00  0.00E+00  0.00E+00  3.20E-08  2.73E-07  3.16E-05  0.99386
    294.  34.014  2.41E-09  2.09E-08  0.00E+00  0.00E+00  0.00E+00  0.00E+00  2.41E-09  2.09E-08  3.17E-05  0.99954
    296.  33.784  1.35E-08  1.18E-07  0.00E+00  0.00E+00  0.00E+00  0.00E+00  1.35E-08  1.18E-07  3.17E-05  0.99752
    298.  33.557  5.33E-08  4.74E-07  0.00E+00  0.00E+00  0.00E+00  0.00E+00  5.33E-08  4.74E-07  3.18E-05  0.99001
1                                             RADIANCE(WATTS/CM2-STER-XXX)
0  FREQ   WAVLEN    PATH THERMAL      SURFACE EMISSION    SURFACE REFLECTED     TOTAL RADIANCE   INTEGRAL    TOTAL
  (CM-1) (MICRN)    (CM-1)   (MICRN)    (CM-1)   (MICRN)    (CM-1)   (MICRN)    (CM-1)   (MICRN)    (CM-1)   TRANS

    300.  33.333  3.12E-08  2.80E-07  0.00E+00  0.00E+00  0.00E+00  0.00E+00  3.12E-08  2.80E-07  3.18E-05  0.99433
    302.  33.113  4.54E-07  4.14E-06  0.00E+00  0.00E+00  0.00E+00  0.00E+00  4.54E-07  4.14E-06  3.28E-05  0.91360
    304.  32.895  2.86E-07  2.65E-06  0.00E+00  0.00E+00  0.00E+00  0.00E+00  2.86E-07  2.65E-06  3.33E-05  0.94555
    306.  32.680  1.59E-08  1.49E-07  0.00E+00  0.00E+00  0.00E+00  0.00E+00  1.59E-08  1.49E-07  3.34E-05  0.99718
    308.  32.468  1.57E-08  1.49E-07  0.00E+00  0.00E+00  0.00E+00  0.00E+00  1.57E-08  1.49E-07  3.34E-05  0.99715
    310.  32.258  1.51E-08  1.46E-07  0.00E+00  0.00E+00  0.00E+00  0.00E+00  1.51E-08  1.46E-07  3.34E-05  0.99725
    312.  32.051  9.15E-09  8.91E-08  0.00E+00  0.00E+00  0.00E+00  0.00E+00  9.15E-09  8.91E-08  3.34E-05  0.99845
    314.  31.847  9.59E-08  9.45E-07  0.00E+00  0.00E+00  0.00E+00  0.00E+00  9.59E-08  9.45E-07  3.36E-05  0.98237
    316.  31.646  9.49E-08  9.48E-07  0.00E+00  0.00E+00  0.00E+00  0.00E+00  9.49E-08  9.48E-07  3.38E-05  0.98253
    318.  31.447  1.87E-09  1.89E-08  0.00E+00  0.00E+00  0.00E+00  0.00E+00  1.87E-09  1.89E-08  3.38E-05  0.99967
    320.  31.250  7.25E-09  7.42E-08  0.00E+00  0.00E+00  0.00E+00  0.00E+00  7.25E-09  7.42E-08  3.38E-05  0.99876
    322.  31.056  1.36E-08  1.41E-07  0.00E+00  0.00E+00  0.00E+00  0.00E+00  1.36E-08  1.41E-07  3.39E-05  0.99762
    324.  30.864  4.12E-07  4.33E-06  0.00E+00  0.00E+00  0.00E+00  0.00E+00  4.12E-07  4.33E-06  3.47E-05  0.92485
    326.  30.675  1.30E-08  1.38E-07  0.00E+00  0.00E+00  0.00E+00  0.00E+00  1.30E-08  1.38E-07  3.47E-05  0.99775
    328.  30.488  3.86E-07  4.15E-06  0.00E+00  0.00E+00  0.00E+00  0.00E+00  3.86E-07  4.15E-06  3.55E-05  0.93015
    330.  30.303  4.06E-09  4.42E-08  0.00E+00  0.00E+00  0.00E+00  0.00E+00  4.06E-09  4.42E-08  3.55E-05  0.99930
    332.  30.120  2.54E-09  2.80E-08  0.00E+00  0.00E+00  0.00E+00  0.00E+00  2.54E-09  2.80E-08  3.55E-05  0.99957
    334.  29.940  1.48E-07  1.65E-06  0.00E+00  0.00E+00  0.00E+00  0.00E+00  1.48E-07  1.65E-06  3.58E-05  0.97351
    336.  29.762  1.66E-07  1.88E-06  0.00E+00  0.00E+00  0.00E+00  0.00E+00  1.66E-07  1.88E-06  3.61E-05  0.97045
    338.  29.586  2.19E-09  2.50E-08  0.00E+00  0.00E+00  0.00E+00  0.00E+00  2.19E-09  2.50E-08  3.61E-05  0.99963
    340.  29.412  6.54E-08  7.57E-07  0.00E+00  0.00E+00  0.00E+00  0.00E+00  6.54E-08  7.57E-07  3.63E-05  0.98856
    342.  29.240  9.28E-08  1.08E-06  0.00E+00  0.00E+00  0.00E+00  0.00E+00  9.28E-08  1.08E-06  3.65E-05  0.98385
    344.  29.070  3.04E-08  3.59E-07  0.00E+00  0.00E+00  0.00E+00  0.00E+00  3.04E-08  3.59E-07  3.65E-05  0.99477
    346.  28.902  3.20E-08  3.83E-07  0.00E+00  0.00E+00  0.00E+00  0.00E+00  3.20E-08  3.83E-07  3.66E-05  0.99461
    348.  28.736  8.53E-09  1.03E-07  0.00E+00  0.00E+00  0.00E+00  0.00E+00  8.53E-09  1.03E-07  3.66E-05  0.99862
    350.  28.571  1.52E-07  1.87E-06  0.00E+00  0.00E+00  0.00E+00  0.00E+00  1.52E-07  1.87E-06  3.69E-05  0.97339
    352.  28.409  2.06E-07  2.55E-06  0.00E+00  0.00E+00  0.00E+00  0.00E+00  2.06E-07  2.55E-06  3.73E-05  0.96426
    354.  28.249  1.71E-07  2.14E-06  0.00E+00  0.00E+00  0.00E+00  0.00E+00  1.71E-07  2.14E-06  3.77E-05  0.97062
    356.  28.090  1.33E-07  1.68E-06  0.00E+00  0.00E+00  0.00E+00  0.00E+00  1.33E-07  1.68E-06  3.79E-05  0.97704
    358.  27.933  1.33E-07  1.70E-06  0.00E+00  0.00E+00  0.00E+00  0.00E+00  1.33E-07  1.70E-06  3.82E-05  0.97727
    360.  27.778  1.98E-09  2.57E-08  0.00E+00  0.00E+00  0.00E+00  0.00E+00  1.98E-09  2.57E-08  3.82E-05  0.99968
    362.  27.624  4.50E-09  5.90E-08  0.00E+00  0.00E+00  0.00E+00  0.00E+00  4.50E-09  5.90E-08  3.82E-05  0.99928
    364.  27.473  3.90E-09  5.16E-08  0.00E+00  0.00E+00  0.00E+00  0.00E+00  3.90E-09  5.16E-08  3.82E-05  0.99938
    366.  27.322  8.37E-10  1.12E-08  0.00E+00  0.00E+00  0.00E+00  0.00E+00  8.37E-10  1.12E-08  3.82E-05  0.99986
    368.  27.174  6.98E-09  9.45E-08  0.00E+00  0.00E+00  0.00E+00  0.00E+00  6.98E-09  9.45E-08  3.82E-05  0.99892
    370.  27.027  1.20E-07  1.65E-06  0.00E+00  0.00E+00  0.00E+00  0.00E+00  1.20E-07  1.65E-06  3.85E-05  0.97966
    372.  26.882  2.87E-09  3.97E-08  0.00E+00  0.00E+00  0.00E+00  0.00E+00  2.87E-09  3.97E-08  3.85E-05  0.99955
    374.  26.738  1.33E-07  1.86E-06  0.00E+00  0.00E+00  0.00E+00  0.00E+00  1.33E-07  1.86E-06  3.87E-05  0.97764
    376.  26.596  1.25E-07  1.77E-06  0.00E+00  0.00E+00  0.00E+00  0.00E+00  1.25E-07  1.77E-06  3.90E-05  0.97900
    378.  26.455  6.05E-09  8.64E-08  0.00E+00  0.00E+00  0.00E+00  0.00E+00  6.05E-09  8.64E-08  3.90E-05  0.99904
    380.  26.316  6.47E-09  9.34E-08  0.00E+00  0.00E+00  0.00E+00  0.00E+00  6.47E-09  9.34E-08  3.90E-05  0.99898
    382.  26.178  1.74E-09  2.54E-08  0.00E+00  0.00E+00  0.00E+00  0.00E+00  1.74E-09  2.54E-08  3.90E-05  0.99973
    384.  26.042  7.48E-08  1.10E-06  0.00E+00  0.00E+00  0.00E+00  0.00E+00  7.48E-08  1.10E-06  3.92E-05  0.98776
    386.  25.907  1.20E-07  1.79E-06  0.00E+00  0.00E+00  0.00E+00  0.00E+00  1.20E-07  1.79E-06  3.94E-05  0.97998
    388.  25.773  6.77E-10  1.02E-08  0.00E+00  0.00E+00  0.00E+00  0.00E+00  6.77E-10  1.02E-08  3.94E-05  0.99989
    390.  25.641  1.32E-09  2.01E-08  0.00E+00  0.00E+00  0.00E+00  0.00E+00  1.32E-09  2.01E-08  3.94E-05  0.99980
    392.  25.510  7.09E-10  1.09E-08  0.00E+00  0.00E+00  0.00E+00  0.00E+00  7.09E-10  1.09E-08  3.94E-05  0.99989
    394.  25.381  5.39E-08  8.37E-07  0.00E+00  0.00E+00  0.00E+00  0.00E+00  5.39E-08  8.37E-07  3.95E-05  0.99104
    396.  25.253  1.39E-07  2.18E-06  0.00E+00  0.00E+00  0.00E+00  0.00E+00  1.39E-07  2.18E-06  3.98E-05  0.97709
    398.  25.126  1.33E-07  2.11E-06  0.00E+00  0.00E+00  0.00E+00  0.00E+00  1.33E-07  2.11E-06  4.01E-05  0.97828
1                                             RADIANCE(WATTS/CM2-STER-XXX)
0  FREQ   WAVLEN    PATH THERMAL      SURFACE EMISSION    SURFACE REFLECTED     TOTAL RADIANCE   INTEGRAL    TOTAL
  (CM-1) (MICRN)    (CM-1)   (MICRN)    (CM-1)   (MICRN)    (CM-1)   (MICRN)    (CM-1)   (MICRN)    (CM-1)   TRANS

    400.  25.000  8.76E-08  1.40E-06  0.00E+00  0.00E+00  0.00E+00  0.00E+00  8.76E-08  1.40E-06  4.02E-05  0.98604
    402.  24.876  5.95E-10  9.61E-09  0.00E+00  0.00E+00  0.00E+00  0.00E+00  5.95E-10  9.61E-09  4.02E-05  0.99991
    404.  24.752  1.99E-09  3.25E-08  0.00E+00  0.00E+00  0.00E+00  0.00E+00  1.99E-09  3.25E-08  4.02E-05  0.99970
    406.  24.631  1.98E-09  3.26E-08  0.00E+00  0.00E+00  0.00E+00  0.00E+00  1.98E-09  3.26E-08  4.02E-05  0.99970
    408.  24.510  4.24E-10  7.05E-09  0.00E+00  0.00E+00  0.00E+00  0.00E+00  4.24E-10  7.05E-09  4.02E-05  0.99994
    410.  24.390  4.83E-10  8.11E-09  0.00E+00  0.00E+00  0.00E+00  0.00E+00  4.83E-10  8.11E-09  4.02E-05  0.99993
    412.  24.272  5.83E-10  9.90E-09  0.00E+00  0.00E+00  0.00E+00  0.00E+00  5.83E-10  9.90E-09  4.02E-05  0.99991
    414.  24.155  1.83E-09  3.14E-08  0.00E+00  0.00E+00  0.00E+00  0.00E+00  1.83E-09  3.14E-08  4.03E-05  0.99972
    416.  24.038  2.97E-09  5.15E-08  0.00E+00  0.00E+00  0.00E+00  0.00E+00  2.97E-09  5.15E-08  4.03E-05  0.99954
    418.  23.923  1.66E-07  2.90E-06  0.00E+00  0.00E+00  0.00E+00  0.00E+00  1.66E-07  2.90E-06  4.06E-05  0.97271
    420.  23.810  1.33E-07  2.34E-06  0.00E+00  0.00E+00  0.00E+00  0.00E+00  1.33E-07  2.34E-06  4.09E-05  0.97807
    422.  23.697  2.16E-08  3.85E-07  0.00E+00  0.00E+00  0.00E+00  0.00E+00  2.16E-08  3.85E-07  4.09E-05  0.99666
    424.  23.585  3.07E-08  5.52E-07  0.00E+00  0.00E+00  0.00E+00  0.00E+00  3.07E-08  5.52E-07  4.10E-05  0.99530
    426.  23.474  2.85E-08  5.17E-07  0.00E+00  0.00E+00  0.00E+00  0.00E+00  2.85E-08  5.17E-07  4.10E-05  0.99560
    428.  23.364  3.50E-09  6.41E-08  0.00E+00  0.00E+00  0.00E+00  0.00E+00  3.50E-09  6.41E-08  4.10E-05  0.99945
    430.  23.256  2.33E-08  4.31E-07  0.00E+00  0.00E+00  0.00E+00  0.00E+00  2.33E-08  4.31E-07  4.11E-05  0.99626
    432.  23.148  2.37E-08  4.43E-07  0.00E+00  0.00E+00  0.00E+00  0.00E+00  2.37E-08  4.43E-07  4.11E-05  0.99618
    434.  23.041  7.67E-09  1.44E-07  0.00E+00  0.00E+00  0.00E+00  0.00E+00  7.67E-09  1.44E-07  4.11E-05  0.99882
    436.  22.936  2.50E-08  4.75E-07  0.00E+00  0.00E+00  0.00E+00  0.00E+00  2.50E-08  4.75E-07  4.12E-05  0.99610
    438.  22.831  6.59E-09  1.26E-07  0.00E+00  0.00E+00  0.00E+00  0.00E+00  6.59E-09  1.26E-07  4.12E-05  0.99894
    440.  22.727  6.49E-09  1.26E-07  0.00E+00  0.00E+00  0.00E+00  0.00E+00  6.49E-09  1.26E-07  4.12E-05  0.99895
    442.  22.624  9.83E-08  1.92E-06  0.00E+00  0.00E+00  0.00E+00  0.00E+00  9.83E-08  1.92E-06  4.14E-05  0.98413
    444.  22.523  2.34E-08  4.61E-07  0.00E+00  0.00E+00  0.00E+00  0.00E+00  2.34E-08  4.61E-07  4.15E-05  0.99636
    446.  22.422  1.55E-08  3.08E-07  0.00E+00  0.00E+00  0.00E+00  0.00E+00  1.55E-08  3.08E-07  4.15E-05  0.99767
    448.  22.321  9.66E-09  1.94E-07  0.00E+00  0.00E+00  0.00E+00  0.00E+00  9.66E-09  1.94E-07  4.15E-05  0.99853
    450.  22.222  4.50E-09  9.12E-08  0.00E+00  0.00E+00  0.00E+00  0.00E+00  4.50E-09  9.12E-08  4.15E-05  0.99928
    452.  22.124  1.50E-08  3.06E-07  0.00E+00  0.00E+00  0.00E+00  0.00E+00  1.50E-08  3.06E-07  4.15E-05  0.99773
    454.  22.026  1.25E-08  2.59E-07  0.00E+00  0.00E+00  0.00E+00  0.00E+00  1.25E-08  2.59E-07  4.16E-05  0.99809
    456.  21.930  3.31E-08  6.89E-07  0.00E+00  0.00E+00  0.00E+00  0.00E+00  3.31E-08  6.89E-07  4.16E-05  0.99471
    458.  21.834  2.32E-07  4.87E-06  0.00E+00  0.00E+00  0.00E+00  0.00E+00  2.32E-07  4.87E-06  4.21E-05  0.96209
    460.  21.739  5.92E-09  1.25E-07  0.00E+00  0.00E+00  0.00E+00  0.00E+00  5.92E-09  1.25E-07  4.21E-05  0.99913
    462.  21.645  6.16E-09  1.32E-07  0.00E+00  0.00E+00  0.00E+00  0.00E+00  6.16E-09  1.32E-07  4.21E-05  0.99909
    464.  21.552  2.72E-09  5.86E-08  0.00E+00  0.00E+00  0.00E+00  0.00E+00  2.72E-09  5.86E-08  4.21E-05  0.99957
    466.  21.459  5.69E-09  1.24E-07  0.00E+00  0.00E+00  0.00E+00  0.00E+00  5.69E-09  1.24E-07  4.21E-05  0.99909
    468.  21.368  1.50E-08  3.30E-07  0.00E+00  0.00E+00  0.00E+00  0.00E+00  1.50E-08  3.30E-07  4.22E-05  0.99778
    470.  21.277  9.85E-09  2.18E-07  0.00E+00  0.00E+00  0.00E+00  0.00E+00  9.85E-09  2.18E-07  4.22E-05  0.99845
    472.  21.186  9.52E-08  2.12E-06  0.00E+00  0.00E+00  0.00E+00  0.00E+00  9.52E-08  2.12E-06  4.24E-05  0.98455
    474.  21.097  3.83E-08  8.59E-07  0.00E+00  0.00E+00  0.00E+00  0.00E+00  3.83E-08  8.59E-07  4.25E-05  0.99379
    476.  21.008  1.24E-08  2.80E-07  0.00E+00  0.00E+00  0.00E+00  0.00E+00  1.24E-08  2.80E-07  4.25E-05  0.99807
    478.  20.921  8.55E-09  1.95E-07  0.00E+00  0.00E+00  0.00E+00  0.00E+00  8.55E-09  1.95E-07  4.25E-05  0.99860
    480.  20.833  8.42E-09  1.94E-07  0.00E+00  0.00E+00  0.00E+00  0.00E+00  8.42E-09  1.94E-07  4.25E-05  0.99864
    482.  20.747  7.29E-09  1.69E-07  0.00E+00  0.00E+00  0.00E+00  0.00E+00  7.29E-09  1.69E-07  4.25E-05  0.99882
    484.  20.661  5.71E-08  1.34E-06  0.00E+00  0.00E+00  0.00E+00  0.00E+00  5.71E-08  1.34E-06  4.26E-05  0.99058
    486.  20.576  7.66E-09  1.81E-07  0.00E+00  0.00E+00  0.00E+00  0.00E+00  7.66E-09  1.81E-07  4.27E-05  0.99883
    488.  20.492  3.41E-09  8.11E-08  0.00E+00  0.00E+00  0.00E+00  0.00E+00  3.41E-09  8.11E-08  4.27E-05  0.99945
    490.  20.408  2.77E-09  6.64E-08  0.00E+00  0.00E+00  0.00E+00  0.00E+00  2.77E-09  6.64E-08  4.27E-05  0.99956
    492.  20.325  2.43E-08  5.88E-07  0.00E+00  0.00E+00  0.00E+00  0.00E+00  2.43E-08  5.88E-07  4.27E-05  0.99624
    494.  20.243  1.94E-09  4.73E-08  0.00E+00  0.00E+00  0.00E+00  0.00E+00  1.94E-09  4.73E-08  4.27E-05  0.99970
    496.  20.161  1.04E-09  2.55E-08  0.00E+00  0.00E+00  0.00E+00  0.00E+00  1.04E-09  2.55E-08  4.27E-05  0.99984
    498.  20.080  7.47E-10  1.85E-08  0.00E+00  0.00E+00  0.00E+00  0.00E+00  7.47E-10  1.85E-08  4.27E-05  0.99989
1                                             RADIANCE(WATTS/CM2-STER-XXX)
0  FREQ   WAVLEN    PATH THERMAL      SURFACE EMISSION    SURFACE REFLECTED     TOTAL RADIANCE   INTEGRAL    TOTAL
  (CM-1) (MICRN)    (CM-1)   (MICRN)    (CM-1)   (MICRN)    (CM-1)   (MICRN)    (CM-1)   (MICRN)    (CM-1)   TRANS

    500.  20.000  8.71E-10  2.18E-08  0.00E+00  0.00E+00  0.00E+00  0.00E+00  8.71E-10  2.18E-08  4.27E-05  0.99987
    502.  19.920  3.66E-08  9.22E-07  0.00E+00  0.00E+00  0.00E+00  0.00E+00  3.66E-08  9.22E-07  4.28E-05  0.99399
    504.  19.841  1.49E-09  3.78E-08  0.00E+00  0.00E+00  0.00E+00  0.00E+00  1.49E-09  3.78E-08  4.28E-05  0.99979
    506.  19.763  2.14E-08  5.48E-07  0.00E+00  0.00E+00  0.00E+00  0.00E+00  2.14E-08  5.48E-07  4.28E-05  0.99644
    508.  19.685  2.15E-08  5.55E-07  0.00E+00  0.00E+00  0.00E+00  0.00E+00  2.15E-08  5.55E-07  4.29E-05  0.99643
    510.  19.608  2.10E-09  5.47E-08  0.00E+00  0.00E+00  0.00E+00  0.00E+00  2.10E-09  5.47E-08  4.29E-05  0.99971
    512.  19.531  2.30E-09  6.04E-08  0.00E+00  0.00E+00  0.00E+00  0.00E+00  2.30E-09  6.04E-08  4.29E-05  0.99966
    514.  19.455  1.01E-09  2.67E-08  0.00E+00  0.00E+00  0.00E+00  0.00E+00  1.01E-09  2.67E-08  4.29E-05  0.99986
    516.  19.380  1.28E-08  3.40E-07  0.00E+00  0.00E+00  0.00E+00  0.00E+00  1.28E-08  3.40E-07  4.29E-05  0.99798
    518.  19.305  3.21E-08  8.62E-07  0.00E+00  0.00E+00  0.00E+00  0.00E+00  3.21E-08  8.62E-07  4.30E-05  0.99482
    520.  19.231  2.34E-08  6.32E-07  0.00E+00  0.00E+00  0.00E+00  0.00E+00  2.34E-08  6.32E-07  4.30E-05  0.99635
    522.  19.157  8.73E-10  2.38E-08  0.00E+00  0.00E+00  0.00E+00  0.00E+00  8.73E-10  2.38E-08  4.30E-05  0.99988
    524.  19.084  1.59E-09  4.37E-08  0.00E+00  0.00E+00  0.00E+00  0.00E+00  1.59E-09  4.37E-08  4.30E-05  0.99977
    526.  19.011  3.51E-08  9.71E-07  0.00E+00  0.00E+00  0.00E+00  0.00E+00  3.51E-08  9.71E-07  4.31E-05  0.99406
    528.  18.939  1.49E-09  4.15E-08  0.00E+00  0.00E+00  0.00E+00  0.00E+00  1.49E-09  4.15E-08  4.31E-05  0.99978
    530.  18.868  2.02E-09  5.66E-08  0.00E+00  0.00E+00  0.00E+00  0.00E+00  2.02E-09  5.66E-08  4.31E-05  0.99970
    532.  18.797  2.07E-09  5.86E-08  0.00E+00  0.00E+00  0.00E+00  0.00E+00  2.07E-09  5.86E-08  4.31E-05  0.99969
    534.  18.727  1.67E-09  4.75E-08  0.00E+00  0.00E+00  0.00E+00  0.00E+00  1.67E-09  4.75E-08  4.31E-05  0.99976
    536.  18.657  1.42E-08  4.09E-07  0.00E+00  0.00E+00  0.00E+00  0.00E+00  1.42E-08  4.09E-07  4.32E-05  0.99771
    538.  18.587  1.80E-09  5.20E-08  0.00E+00  0.00E+00  0.00E+00  0.00E+00  1.80E-09  5.20E-08  4.32E-05  0.99973
    540.  18.519  3.78E-09  1.10E-07  0.00E+00  0.00E+00  0.00E+00  0.00E+00  3.78E-09  1.10E-07  4.32E-05  0.99941
    542.  18.450  3.26E-09  9.58E-08  0.00E+00  0.00E+00  0.00E+00  0.00E+00  3.26E-09  9.58E-08  4.32E-05  0.99949
    544.  18.382  2.52E-08  7.45E-07  0.00E+00  0.00E+00  0.00E+00  0.00E+00  2.52E-08  7.45E-07  4.32E-05  0.99610
    546.  18.315  3.60E-08  1.07E-06  0.00E+00  0.00E+00  0.00E+00  0.00E+00  3.60E-08  1.07E-06  4.33E-05  0.99429
    548.  18.248  6.80E-09  2.04E-07  0.00E+00  0.00E+00  0.00E+00  0.00E+00  6.80E-09  2.04E-07  4.33E-05  0.99897
    550.  18.182  1.02E-08  3.08E-07  0.00E+00  0.00E+00  0.00E+00  0.00E+00  1.02E-08  3.08E-07  4.33E-05  0.99840
    552.  18.116  2.93E-09  8.94E-08  0.00E+00  0.00E+00  0.00E+00  0.00E+00  2.93E-09  8.94E-08  4.33E-05  0.99954
    554.  18.051  6.58E-09  2.02E-07  0.00E+00  0.00E+00  0.00E+00  0.00E+00  6.58E-09  2.02E-07  4.33E-05  0.99895
    556.  17.986  8.85E-09  2.74E-07  0.00E+00  0.00E+00  0.00E+00  0.00E+00  8.85E-09  2.74E-07  4.34E-05  0.99858
    558.  17.921  5.88E-09  1.83E-07  0.00E+00  0.00E+00  0.00E+00  0.00E+00  5.88E-09  1.83E-07  4.34E-05  0.99906
    560.  17.857  7.25E-09  2.27E-07  0.00E+00  0.00E+00  0.00E+00  0.00E+00  7.25E-09  2.27E-07  4.34E-05  0.99880
    562.  17.794  1.14E-08  3.59E-07  0.00E+00  0.00E+00  0.00E+00  0.00E+00  1.14E-08  3.59E-07  4.34E-05  0.99812
    564.  17.730  1.55E-08  4.92E-07  0.00E+00  0.00E+00  0.00E+00  0.00E+00  1.55E-08  4.92E-07  4.34E-05  0.99744
    566.  17.668  2.26E-08  7.23E-07  0.00E+00  0.00E+00  0.00E+00  0.00E+00  2.26E-08  7.23E-07  4.35E-05  0.99622
    568.  17.606  3.22E-08  1.04E-06  0.00E+00  0.00E+00  0.00E+00  0.00E+00  3.22E-08  1.04E-06  4.36E-05  0.99463
    570.  17.544  3.39E-08  1.10E-06  0.00E+00  0.00E+00  0.00E+00  0.00E+00  3.39E-08  1.10E-06  4.36E-05  0.99435
    572.  17.483  2.72E-08  8.91E-07  0.00E+00  0.00E+00  0.00E+00  0.00E+00  2.72E-08  8.91E-07  4.37E-05  0.99552
    574.  17.422  3.55E-08  1.17E-06  0.00E+00  0.00E+00  0.00E+00  0.00E+00  3.55E-08  1.17E-06  4.37E-05  0.99413
    576.  17.361  6.43E-08  2.13E-06  0.00E+00  0.00E+00  0.00E+00  0.00E+00  6.43E-08  2.13E-06  4.39E-05  0.98930
    578.  17.301  6.24E-08  2.08E-06  0.00E+00  0.00E+00  0.00E+00  0.00E+00  6.24E-08  2.08E-06  4.40E-05  0.98977
    580.  17.241  8.18E-08  2.75E-06  0.00E+00  0.00E+00  0.00E+00  0.00E+00  8.18E-08  2.75E-06  4.42E-05  0.98643
    582.  17.182  8.86E-08  3.00E-06  0.00E+00  0.00E+00  0.00E+00  0.00E+00  8.86E-08  3.00E-06  4.43E-05  0.98551
    584.  17.123  1.03E-07  3.53E-06  0.00E+00  0.00E+00  0.00E+00  0.00E+00  1.03E-07  3.53E-06  4.45E-05  0.98253
    586.  17.065  1.44E-07  4.95E-06  0.00E+00  0.00E+00  0.00E+00  0.00E+00  1.44E-07  4.95E-06  4.48E-05  0.97516
    588.  17.007  2.29E-07  7.92E-06  0.00E+00  0.00E+00  0.00E+00  0.00E+00  2.29E-07  7.92E-06  4.53E-05  0.95862
    590.  16.949  3.26E-07  1.14E-05  0.00E+00  0.00E+00  0.00E+00  0.00E+00  3.26E-07  1.14E-05  4.59E-05  0.94040
    592.  16.892  1.83E-07  6.43E-06  0.00E+00  0.00E+00  0.00E+00  0.00E+00  1.83E-07  6.43E-06  4.63E-05  0.96686
    594.  16.835  2.60E-07  9.19E-06  0.00E+00  0.00E+00  0.00E+00  0.00E+00  2.60E-07  9.19E-06  4.68E-05  0.95165
    596.  16.779  4.40E-07  1.56E-05  0.00E+00  0.00E+00  0.00E+00  0.00E+00  4.40E-07  1.56E-05  4.77E-05  0.92032
    598.  16.722  4.40E-07  1.57E-05  0.00E+00  0.00E+00  0.00E+00  0.00E+00  4.40E-07  1.57E-05  4.86E-05  0.91779
1                                             RADIANCE(WATTS/CM2-STER-XXX)
0  FREQ   WAVLEN    PATH THERMAL      SURFACE EMISSION    SURFACE REFLECTED     TOTAL RADIANCE   INTEGRAL    TOTAL
  (CM-1) (MICRN)    (CM-1)   (MICRN)    (CM-1)   (MICRN)    (CM-1)   (MICRN)    (CM-1)   (MICRN)    (CM-1)   TRANS

    600.  16.667  2.39E-07  8.60E-06  0.00E+00  0.00E+00  0.00E+00  0.00E+00  2.39E-07  8.60E-06  4.91E-05  0.95464
    602.  16.611  3.18E-07  1.15E-05  0.00E+00  0.00E+00  0.00E+00  0.00E+00  3.18E-07  1.15E-05  4.97E-05  0.93848
    604.  16.556  2.67E-07  9.76E-06  0.00E+00  0.00E+00  0.00E+00  0.00E+00  2.67E-07  9.76E-06  5.02E-05  0.94888
    606.  16.502  4.11E-07  1.51E-05  0.00E+00  0.00E+00  0.00E+00  0.00E+00  4.11E-07  1.51E-05  5.11E-05  0.92054
    608.  16.447  4.09E-07  1.51E-05  0.00E+00  0.00E+00  0.00E+00  0.00E+00  4.09E-07  1.51E-05  5.19E-05  0.92069
    610.  16.393  3.17E-07  1.18E-05  0.00E+00  0.00E+00  0.00E+00  0.00E+00  3.17E-07  1.18E-05  5.25E-05  0.93910
    612.  16.340  3.20E-07  1.20E-05  0.00E+00  0.00E+00  0.00E+00  0.00E+00  3.20E-07  1.20E-05  5.32E-05  0.93841
    614.  16.287  4.08E-07  1.54E-05  0.00E+00  0.00E+00  0.00E+00  0.00E+00  4.08E-07  1.54E-05  5.40E-05  0.92094
    616.  16.234  1.06E-06  4.04E-05  0.00E+00  0.00E+00  0.00E+00  0.00E+00  1.06E-06  4.04E-05  5.61E-05  0.79211
    618.  16.181  2.28E-06  8.70E-05  0.00E+00  0.00E+00  0.00E+00  0.00E+00  2.28E-06  8.70E-05  6.07E-05  0.53764
    620.  16.129  3.61E-07  1.39E-05  0.00E+00  0.00E+00  0.00E+00  0.00E+00  3.61E-07  1.39E-05  6.14E-05  0.93070
    622.  16.077  4.79E-07  1.85E-05  0.00E+00  0.00E+00  0.00E+00  0.00E+00  4.79E-07  1.85E-05  6.23E-05  0.90579
    624.  16.026  6.70E-07  2.61E-05  0.00E+00  0.00E+00  0.00E+00  0.00E+00  6.70E-07  2.61E-05  6.37E-05  0.86573
    626.  15.974  6.67E-07  2.62E-05  0.00E+00  0.00E+00  0.00E+00  0.00E+00  6.67E-07  2.62E-05  6.50E-05  0.86522
    628.  15.924  8.92E-07  3.52E-05  0.00E+00  0.00E+00  0.00E+00  0.00E+00  8.92E-07  3.52E-05  6.68E-05  0.81817
    630.  15.873  9.60E-07  3.81E-05  0.00E+00  0.00E+00  0.00E+00  0.00E+00  9.60E-07  3.81E-05  6.87E-05  0.80300
    632.  15.823  1.06E-06  4.22E-05  0.00E+00  0.00E+00  0.00E+00  0.00E+00  1.06E-06  4.22E-05  7.08E-05  0.78176
    634.  15.773  1.23E-06  4.94E-05  0.00E+00  0.00E+00  0.00E+00  0.00E+00  1.23E-06  4.94E-05  7.33E-05  0.74412
    636.  15.723  1.32E-06  5.34E-05  0.00E+00  0.00E+00  0.00E+00  0.00E+00  1.32E-06  5.34E-05  7.59E-05  0.72458
    638.  15.674  1.60E-06  6.51E-05  0.00E+00  0.00E+00  0.00E+00  0.00E+00  1.60E-06  6.51E-05  7.91E-05  0.66340
    640.  15.625  1.78E-06  7.28E-05  0.00E+00  0.00E+00  0.00E+00  0.00E+00  1.78E-06  7.28E-05  8.27E-05  0.62420
    642.  15.576  1.78E-06  7.35E-05  0.00E+00  0.00E+00  0.00E+00  0.00E+00  1.78E-06  7.35E-05  8.63E-05  0.62183
    644.  15.528  2.28E-06  9.44E-05  0.00E+00  0.00E+00  0.00E+00  0.00E+00  2.28E-06  9.44E-05  9.08E-05  0.51325
    646.  15.480  2.49E-06  1.04E-04  0.00E+00  0.00E+00  0.00E+00  0.00E+00  2.49E-06  1.04E-04  9.58E-05  0.46447
    648.  15.432  2.95E-06  1.24E-04  0.00E+00  0.00E+00  0.00E+00  0.00E+00  2.95E-06  1.24E-04  1.02E-04  0.35830
    650.  15.385  3.32E-06  1.40E-04  0.00E+00  0.00E+00  0.00E+00  0.00E+00  3.32E-06  1.40E-04  1.08E-04  0.27315
    652.  15.337  2.91E-06  1.24E-04  0.00E+00  0.00E+00  0.00E+00  0.00E+00  2.91E-06  1.24E-04  1.14E-04  0.36373
    654.  15.291  2.71E-06  1.16E-04  0.00E+00  0.00E+00  0.00E+00  0.00E+00  2.71E-06  1.16E-04  1.20E-04  0.40824
    656.  15.244  2.64E-06  1.14E-04  0.00E+00  0.00E+00  0.00E+00  0.00E+00  2.64E-06  1.14E-04  1.25E-04  0.42067
    658.  15.198  2.97E-06  1.29E-04  0.00E+00  0.00E+00  0.00E+00  0.00E+00  2.97E-06  1.29E-04  1.31E-04  0.34163
    660.  15.152  2.86E-06  1.25E-04  0.00E+00  0.00E+00  0.00E+00  0.00E+00  2.86E-06  1.25E-04  1.36E-04  0.36396
    662.  15.106  3.22E-06  1.41E-04  0.00E+00  0.00E+00  0.00E+00  0.00E+00  3.22E-06  1.41E-04  1.43E-04  0.28042
    664.  15.060  3.28E-06  1.45E-04  0.00E+00  0.00E+00  0.00E+00  0.00E+00  3.28E-06  1.45E-04  1.49E-04  0.26179
    666.  15.015  3.47E-06  1.54E-04  0.00E+00  0.00E+00  0.00E+00  0.00E+00  3.47E-06  1.54E-04  1.56E-04  0.21449
    668.  14.970  4.28E-06  1.91E-04  0.00E+00  0.00E+00  0.00E+00  0.00E+00  4.28E-06  1.91E-04  1.65E-04  0.00228
    670.  14.925  3.84E-06  1.72E-04  0.00E+00  0.00E+00  0.00E+00  0.00E+00  3.84E-06  1.72E-04  1.73E-04  0.11599
    672.  14.881  2.94E-06  1.33E-04  0.00E+00  0.00E+00  0.00E+00  0.00E+00  2.94E-06  1.33E-04  1.79E-04  0.33241
    674.  14.837  2.95E-06  1.34E-04  0.00E+00  0.00E+00  0.00E+00  0.00E+00  2.95E-06  1.34E-04  1.84E-04  0.32366
    676.  14.793  2.78E-06  1.27E-04  0.00E+00  0.00E+00  0.00E+00  0.00E+00  2.78E-06  1.27E-04  1.90E-04  0.36211
    678.  14.749  3.04E-06  1.40E-04  0.00E+00  0.00E+00  0.00E+00  0.00E+00  3.04E-06  1.40E-04  1.96E-04  0.29590
    680.  14.706  2.80E-06  1.29E-04  0.00E+00  0.00E+00  0.00E+00  0.00E+00  2.80E-06  1.29E-04  2.02E-04  0.35355
    682.  14.663  2.87E-06  1.34E-04  0.00E+00  0.00E+00  0.00E+00  0.00E+00  2.87E-06  1.34E-04  2.07E-04  0.32962
    684.  14.620  2.49E-06  1.17E-04  0.00E+00  0.00E+00  0.00E+00  0.00E+00  2.49E-06  1.17E-04  2.12E-04  0.42024
    686.  14.577  2.52E-06  1.19E-04  0.00E+00  0.00E+00  0.00E+00  0.00E+00  2.52E-06  1.19E-04  2.17E-04  0.40827
    688.  14.535  2.23E-06  1.06E-04  0.00E+00  0.00E+00  0.00E+00  0.00E+00  2.23E-06  1.06E-04  2.22E-04  0.47796
    690.  14.493  2.30E-06  1.10E-04  0.00E+00  0.00E+00  0.00E+00  0.00E+00  2.30E-06  1.10E-04  2.26E-04  0.45643
    692.  14.451  1.72E-06  8.24E-05  0.00E+00  0.00E+00  0.00E+00  0.00E+00  1.72E-06  8.24E-05  2.30E-04  0.59765
    694.  14.409  1.67E-06  8.06E-05  0.00E+00  0.00E+00  0.00E+00  0.00E+00  1.67E-06  8.06E-05  2.33E-04  0.60484
    696.  14.368  1.42E-06  6.86E-05  0.00E+00  0.00E+00  0.00E+00  0.00E+00  1.42E-06  6.86E-05  2.36E-04  0.66599
    698.  14.327  1.34E-06  6.55E-05  0.00E+00  0.00E+00  0.00E+00  0.00E+00  1.34E-06  6.55E-05  2.39E-04  0.68058
1                                             RADIANCE(WATTS/CM2-STER-XXX)
0  FREQ   WAVLEN    PATH THERMAL      SURFACE EMISSION    SURFACE REFLECTED     TOTAL RADIANCE   INTEGRAL    TOTAL
  (CM-1) (MICRN)    (CM-1)   (MICRN)    (CM-1)   (MICRN)    (CM-1)   (MICRN)    (CM-1)   (MICRN)    (CM-1)   TRANS

    700.  14.286  9.45E-07  4.63E-05  0.00E+00  0.00E+00  0.00E+00  0.00E+00  9.45E-07  4.63E-05  2.41E-04  0.77642
    702.  14.245  1.10E-06  5.40E-05  0.00E+00  0.00E+00  0.00E+00  0.00E+00  1.10E-06  5.40E-05  2.43E-04  0.73776
    704.  14.205  8.72E-07  4.32E-05  0.00E+00  0.00E+00  0.00E+00  0.00E+00  8.72E-07  4.32E-05  2.45E-04  0.79280
    706.  14.164  7.09E-07  3.53E-05  0.00E+00  0.00E+00  0.00E+00  0.00E+00  7.09E-07  3.53E-05  2.46E-04  0.83170
    708.  14.124  7.07E-07  3.54E-05  0.00E+00  0.00E+00  0.00E+00  0.00E+00  7.07E-07  3.54E-05  2.47E-04  0.83177
    710.  14.085  7.01E-07  3.53E-05  0.00E+00  0.00E+00  0.00E+00  0.00E+00  7.01E-07  3.53E-05  2.49E-04  0.83438
    712.  14.045  6.34E-07  3.21E-05  0.00E+00  0.00E+00  0.00E+00  0.00E+00  6.34E-07  3.21E-05  2.50E-04  0.85059
    714.  14.006  5.55E-07  2.83E-05  0.00E+00  0.00E+00  0.00E+00  0.00E+00  5.55E-07  2.83E-05  2.51E-04  0.86905
    716.  13.966  5.38E-07  2.76E-05  0.00E+00  0.00E+00  0.00E+00  0.00E+00  5.38E-07  2.76E-05  2.52E-04  0.87548
    718.  13.928  6.91E-07  3.56E-05  0.00E+00  0.00E+00  0.00E+00  0.00E+00  6.91E-07  3.56E-05  2.54E-04  0.83694
    720.  13.889  1.86E-06  9.63E-05  0.00E+00  0.00E+00  0.00E+00  0.00E+00  1.86E-06  9.63E-05  2.57E-04  0.53383
    722.  13.850  8.65E-07  4.51E-05  0.00E+00  0.00E+00  0.00E+00  0.00E+00  8.65E-07  4.51E-05  2.59E-04  0.78883
    724.  13.812  4.41E-07  2.31E-05  0.00E+00  0.00E+00  0.00E+00  0.00E+00  4.41E-07  2.31E-05  2.60E-04  0.89697
    726.  13.774  2.84E-07  1.50E-05  0.00E+00  0.00E+00  0.00E+00  0.00E+00  2.84E-07  1.50E-05  2.61E-04  0.93306
    728.  13.736  3.16E-07  1.67E-05  0.00E+00  0.00E+00  0.00E+00  0.00E+00  3.16E-07  1.67E-05  2.61E-04  0.92513
    730.  13.699  4.41E-07  2.35E-05  0.00E+00  0.00E+00  0.00E+00  0.00E+00  4.41E-07  2.35E-05  2.62E-04  0.89341
    732.  13.661  3.51E-07  1.88E-05  0.00E+00  0.00E+00  0.00E+00  0.00E+00  3.51E-07  1.88E-05  2.63E-04  0.91314
    734.  13.624  2.82E-07  1.52E-05  0.00E+00  0.00E+00  0.00E+00  0.00E+00  2.82E-07  1.52E-05  2.63E-04  0.93132
    736.  13.587  3.88E-07  2.10E-05  0.00E+00  0.00E+00  0.00E+00  0.00E+00  3.88E-07  2.10E-05  2.64E-04  0.90439
    738.  13.550  3.51E-07  1.91E-05  0.00E+00  0.00E+00  0.00E+00  0.00E+00  3.51E-07  1.91E-05  2.65E-04  0.91219
    740.  13.514  3.20E-07  1.75E-05  0.00E+00  0.00E+00  0.00E+00  0.00E+00  3.20E-07  1.75E-05  2.65E-04  0.92184
    742.  13.477  4.85E-07  2.67E-05  0.00E+00  0.00E+00  0.00E+00  0.00E+00  4.85E-07  2.67E-05  2.66E-04  0.87927
    744.  13.441  2.59E-07  1.43E-05  0.00E+00  0.00E+00  0.00E+00  0.00E+00  2.59E-07  1.43E-05  2.67E-04  0.93606
    746.  13.405  1.59E-07  8.87E-06  0.00E+00  0.00E+00  0.00E+00  0.00E+00  1.59E-07  8.87E-06  2.67E-04  0.96099
    748.  13.369  1.70E-07  9.49E-06  0.00E+00  0.00E+00  0.00E+00  0.00E+00  1.70E-07  9.49E-06  2.68E-04  0.95789
    750.  13.333  2.07E-07  1.16E-05  0.00E+00  0.00E+00  0.00E+00  0.00E+00  2.07E-07  1.16E-05  2.68E-04  0.95001
    752.  13.298  1.34E-07  7.55E-06  0.00E+00  0.00E+00  0.00E+00  0.00E+00  1.34E-07  7.55E-06  2.68E-04  0.96814
    754.  13.263  1.26E-07  7.17E-06  0.00E+00  0.00E+00  0.00E+00  0.00E+00  1.26E-07  7.17E-06  2.69E-04  0.97019
    756.  13.228  1.31E-07  7.52E-06  0.00E+00  0.00E+00  0.00E+00  0.00E+00  1.31E-07  7.52E-06  2.69E-04  0.96992
    758.  13.193  1.18E-07  6.75E-06  0.00E+00  0.00E+00  0.00E+00  0.00E+00  1.18E-07  6.75E-06  2.69E-04  0.97297
    760.  13.158  7.60E-08  4.39E-06  0.00E+00  0.00E+00  0.00E+00  0.00E+00  7.60E-08  4.39E-06  2.69E-04  0.98252
    762.  13.123  7.52E-08  4.37E-06  0.00E+00  0.00E+00  0.00E+00  0.00E+00  7.52E-08  4.37E-06  2.69E-04  0.98260
    764.  13.089  6.54E-08  3.82E-06  0.00E+00  0.00E+00  0.00E+00  0.00E+00  6.54E-08  3.82E-06  2.69E-04  0.98477
    766.  13.055  5.76E-08  3.38E-06  0.00E+00  0.00E+00  0.00E+00  0.00E+00  5.76E-08  3.38E-06  2.70E-04  0.98663
    768.  13.021  4.36E-08  2.57E-06  0.00E+00  0.00E+00  0.00E+00  0.00E+00  4.36E-08  2.57E-06  2.70E-04  0.98981
    770.  12.987  4.27E-08  2.53E-06  0.00E+00  0.00E+00  0.00E+00  0.00E+00  4.27E-08  2.53E-06  2.70E-04  0.98998
    772.  12.953  4.09E-08  2.44E-06  0.00E+00  0.00E+00  0.00E+00  0.00E+00  4.09E-08  2.44E-06  2.70E-04  0.99028
    774.  12.920  3.23E-08  1.94E-06  0.00E+00  0.00E+00  0.00E+00  0.00E+00  3.23E-08  1.94E-06  2.70E-04  0.99228
    776.  12.887  3.39E-08  2.04E-06  0.00E+00  0.00E+00  0.00E+00  0.00E+00  3.39E-08  2.04E-06  2.70E-04  0.99185
    778.  12.853  2.79E-08  1.69E-06  0.00E+00  0.00E+00  0.00E+00  0.00E+00  2.79E-08  1.69E-06  2.70E-04  0.99326
    780.  12.821  2.47E-08  1.50E-06  0.00E+00  0.00E+00  0.00E+00  0.00E+00  2.47E-08  1.50E-06  2.70E-04  0.99397
    782.  12.788  2.33E-08  1.43E-06  0.00E+00  0.00E+00  0.00E+00  0.00E+00  2.33E-08  1.43E-06  2.70E-04  0.99431
    784.  12.755  2.41E-08  1.48E-06  0.00E+00  0.00E+00  0.00E+00  0.00E+00  2.41E-08  1.48E-06  2.70E-04  0.99408
    786.  12.723  2.00E-08  1.24E-06  0.00E+00  0.00E+00  0.00E+00  0.00E+00  2.00E-08  1.24E-06  2.70E-04  0.99505
    788.  12.690  1.39E-08  8.64E-07  0.00E+00  0.00E+00  0.00E+00  0.00E+00  1.39E-08  8.64E-07  2.70E-04  0.99653
    790.  12.658  1.85E-08  1.15E-06  0.00E+00  0.00E+00  0.00E+00  0.00E+00  1.85E-08  1.15E-06  2.70E-04  0.99541
    792.  12.626  5.95E-08  3.73E-06  0.00E+00  0.00E+00  0.00E+00  0.00E+00  5.95E-08  3.73E-06  2.70E-04  0.98564
    794.  12.594  1.40E-08  8.83E-07  0.00E+00  0.00E+00  0.00E+00  0.00E+00  1.40E-08  8.83E-07  2.70E-04  0.99651
    796.  12.563  1.14E-08  7.22E-07  0.00E+00  0.00E+00  0.00E+00  0.00E+00  1.14E-08  7.22E-07  2.70E-04  0.99710
    798.  12.531  1.38E-08  8.82E-07  0.00E+00  0.00E+00  0.00E+00  0.00E+00  1.38E-08  8.82E-07  2.70E-04  0.99648
1                                             RADIANCE(WATTS/CM2-STER-XXX)
0  FREQ   WAVLEN    PATH THERMAL      SURFACE EMISSION    SURFACE REFLECTED     TOTAL RADIANCE   INTEGRAL    TOTAL
  (CM-1) (MICRN)    (CM-1)   (MICRN)    (CM-1)   (MICRN)    (CM-1)   (MICRN)    (CM-1)   (MICRN)    (CM-1)   TRANS

    800.  12.500  1.17E-08  7.51E-07  0.00E+00  0.00E+00  0.00E+00  0.00E+00  1.17E-08  7.51E-07  2.71E-04  0.99700
    802.  12.469  1.04E-08  6.71E-07  0.00E+00  0.00E+00  0.00E+00  0.00E+00  1.04E-08  6.71E-07  2.71E-04  0.99733
    804.  12.438  8.61E-09  5.57E-07  0.00E+00  0.00E+00  0.00E+00  0.00E+00  8.61E-09  5.57E-07  2.71E-04  0.99778
    806.  12.407  1.03E-08  6.72E-07  0.00E+00  0.00E+00  0.00E+00  0.00E+00  1.03E-08  6.72E-07  2.71E-04  0.99735
    808.  12.376  8.92E-09  5.82E-07  0.00E+00  0.00E+00  0.00E+00  0.00E+00  8.92E-09  5.82E-07  2.71E-04  0.99769
    810.  12.346  6.56E-09  4.31E-07  0.00E+00  0.00E+00  0.00E+00  0.00E+00  6.56E-09  4.31E-07  2.71E-04  0.99828
    812.  12.315  6.08E-09  4.01E-07  0.00E+00  0.00E+00  0.00E+00  0.00E+00  6.08E-09  4.01E-07  2.71E-04  0.99842
    814.  12.285  5.68E-09  3.76E-07  0.00E+00  0.00E+00  0.00E+00  0.00E+00  5.68E-09  3.76E-07  2.71E-04  0.99850
    816.  12.255  4.86E-09  3.24E-07  0.00E+00  0.00E+00  0.00E+00  0.00E+00  4.86E-09  3.24E-07  2.71E-04  0.99872
    818.  12.225  3.33E-09  2.23E-07  0.00E+00  0.00E+00  0.00E+00  0.00E+00  3.33E-09  2.23E-07  2.71E-04  0.99911
    820.  12.195  2.79E-09  1.87E-07  0.00E+00  0.00E+00  0.00E+00  0.00E+00  2.79E-09  1.87E-07  2.71E-04  0.99927
    822.  12.165  2.40E-09  1.62E-07  0.00E+00  0.00E+00  0.00E+00  0.00E+00  2.40E-09  1.62E-07  2.71E-04  0.99937
    824.  12.136  1.78E-09  1.21E-07  0.00E+00  0.00E+00  0.00E+00  0.00E+00  1.78E-09  1.21E-07  2.71E-04  0.99953
    826.  12.107  1.51E-09  1.03E-07  0.00E+00  0.00E+00  0.00E+00  0.00E+00  1.51E-09  1.03E-07  2.71E-04  0.99961
    828.  12.077  1.57E-09  1.07E-07  0.00E+00  0.00E+00  0.00E+00  0.00E+00  1.57E-09  1.07E-07  2.71E-04  0.99960
    830.  12.048  1.29E-09  8.85E-08  0.00E+00  0.00E+00  0.00E+00  0.00E+00  1.29E-09  8.85E-08  2.71E-04  0.99967
    832.  12.019  9.33E-10  6.46E-08  0.00E+00  0.00E+00  0.00E+00  0.00E+00  9.33E-10  6.46E-08  2.71E-04  0.99975
    834.  11.990  8.83E-10  6.14E-08  0.00E+00  0.00E+00  0.00E+00  0.00E+00  8.83E-10  6.14E-08  2.71E-04  0.99977
    836.  11.962  7.90E-10  5.52E-08  0.00E+00  0.00E+00  0.00E+00  0.00E+00  7.90E-10  5.52E-08  2.71E-04  0.99979
    838.  11.933  8.59E-10  6.03E-08  0.00E+00  0.00E+00  0.00E+00  0.00E+00  8.59E-10  6.03E-08  2.71E-04  0.99976
    840.  11.905  8.11E-10  5.72E-08  0.00E+00  0.00E+00  0.00E+00  0.00E+00  8.11E-10  5.72E-08  2.71E-04  0.99977
    842.  11.876  9.21E-10  6.53E-08  0.00E+00  0.00E+00  0.00E+00  0.00E+00  9.21E-10  6.53E-08  2.71E-04  0.99973
    844.  11.848  1.15E-09  8.18E-08  0.00E+00  0.00E+00  0.00E+00  0.00E+00  1.15E-09  8.18E-08  2.71E-04  0.99965
    846.  11.820  1.35E-09  9.67E-08  0.00E+00  0.00E+00  0.00E+00  0.00E+00  1.35E-09  9.67E-08  2.71E-04  0.99957
    848.  11.792  1.46E-09  1.05E-07  0.00E+00  0.00E+00  0.00E+00  0.00E+00  1.46E-09  1.05E-07  2.71E-04  0.99953
    850.  11.765  1.79E-09  1.29E-07  0.00E+00  0.00E+00  0.00E+00  0.00E+00  1.79E-09  1.29E-07  2.71E-04  0.99942
    852.  11.737  2.02E-09  1.47E-07  0.00E+00  0.00E+00  0.00E+00  0.00E+00  2.02E-09  1.47E-07  2.71E-04  0.99934
    854.  11.710  2.25E-09  1.64E-07  0.00E+00  0.00E+00  0.00E+00  0.00E+00  2.25E-09  1.64E-07  2.71E-04  0.99926
    856.  11.682  2.88E-09  2.11E-07  0.00E+00  0.00E+00  0.00E+00  0.00E+00  2.88E-09  2.11E-07  2.71E-04  0.99904
    858.  11.655  3.61E-09  2.66E-07  0.00E+00  0.00E+00  0.00E+00  0.00E+00  3.61E-09  2.66E-07  2.71E-04  0.99877
    860.  11.628  4.66E-09  3.44E-07  0.00E+00  0.00E+00  0.00E+00  0.00E+00  4.66E-09  3.44E-07  2.71E-04  0.99840
    862.  11.601  5.45E-09  4.05E-07  0.00E+00  0.00E+00  0.00E+00  0.00E+00  5.45E-09  4.05E-07  2.71E-04  0.99811
    864.  11.574  6.95E-09  5.19E-07  0.00E+00  0.00E+00  0.00E+00  0.00E+00  6.95E-09  5.19E-07  2.71E-04  0.99757
    866.  11.547  7.33E-09  5.50E-07  0.00E+00  0.00E+00  0.00E+00  0.00E+00  7.33E-09  5.50E-07  2.71E-04  0.99741
    868.  11.521  7.98E-09  6.02E-07  0.00E+00  0.00E+00  0.00E+00  0.00E+00  7.98E-09  6.02E-07  2.71E-04  0.99716
    870.  11.494  8.08E-09  6.12E-07  0.00E+00  0.00E+00  0.00E+00  0.00E+00  8.08E-09  6.12E-07  2.71E-04  0.99711
    872.  11.468  8.00E-09  6.09E-07  0.00E+00  0.00E+00  0.00E+00  0.00E+00  8.00E-09  6.09E-07  2.71E-04  0.99712
    874.  11.442  7.70E-09  5.88E-07  0.00E+00  0.00E+00  0.00E+00  0.00E+00  7.70E-09  5.88E-07  2.71E-04  0.99721
    876.  11.416  7.42E-09  5.69E-07  0.00E+00  0.00E+00  0.00E+00  0.00E+00  7.42E-09  5.69E-07  2.71E-04  0.99729
    878.  11.390  1.33E-08  1.03E-06  0.00E+00  0.00E+00  0.00E+00  0.00E+00  1.33E-08  1.03E-06  2.71E-04  0.99509
    880.  11.364  1.19E-08  9.20E-07  0.00E+00  0.00E+00  0.00E+00  0.00E+00  1.19E-08  9.20E-07  2.71E-04  0.99560
    882.  11.338  9.54E-09  7.42E-07  0.00E+00  0.00E+00  0.00E+00  0.00E+00  9.54E-09  7.42E-07  2.71E-04  0.99644
    884.  11.312  1.13E-08  8.85E-07  0.00E+00  0.00E+00  0.00E+00  0.00E+00  1.13E-08  8.85E-07  2.71E-04  0.99575
    886.  11.287  1.19E-08  9.32E-07  0.00E+00  0.00E+00  0.00E+00  0.00E+00  1.19E-08  9.32E-07  2.71E-04  0.99552
    888.  11.261  1.26E-08  9.94E-07  0.00E+00  0.00E+00  0.00E+00  0.00E+00  1.26E-08  9.94E-07  2.71E-04  0.99521
    890.  11.236  1.21E-08  9.55E-07  0.00E+00  0.00E+00  0.00E+00  0.00E+00  1.21E-08  9.55E-07  2.71E-04  0.99539
    892.  11.211  1.17E-08  9.32E-07  0.00E+00  0.00E+00  0.00E+00  0.00E+00  1.17E-08  9.32E-07  2.71E-04  0.99550
    894.  11.186  9.91E-09  7.92E-07  0.00E+00  0.00E+00  0.00E+00  0.00E+00  9.91E-09  7.92E-07  2.71E-04  0.99618
    896.  11.161  1.62E-08  1.30E-06  0.00E+00  0.00E+00  0.00E+00  0.00E+00  1.62E-08  1.30E-06  2.71E-04  0.99366
    898.  11.136  7.62E-09  6.15E-07  0.00E+00  0.00E+00  0.00E+00  0.00E+00  7.62E-09  6.15E-07  2.71E-04  0.99703
1                                             RADIANCE(WATTS/CM2-STER-XXX)
0  FREQ   WAVLEN    PATH THERMAL      SURFACE EMISSION    SURFACE REFLECTED     TOTAL RADIANCE   INTEGRAL    TOTAL
  (CM-1) (MICRN)    (CM-1)   (MICRN)    (CM-1)   (MICRN)    (CM-1)   (MICRN)    (CM-1)   (MICRN)    (CM-1)   TRANS

    900.  11.111  7.35E-09  5.96E-07  0.00E+00  0.00E+00  0.00E+00  0.00E+00  7.35E-09  5.96E-07  2.71E-04  0.99712
    902.  11.086  6.85E-09  5.57E-07  0.00E+00  0.00E+00  0.00E+00  0.00E+00  6.85E-09  5.57E-07  2.71E-04  0.99730
    904.  11.062  6.70E-09  5.47E-07  0.00E+00  0.00E+00  0.00E+00  0.00E+00  6.70E-09  5.47E-07  2.71E-04  0.99734
    906.  11.038  6.87E-09  5.64E-07  0.00E+00  0.00E+00  0.00E+00  0.00E+00  6.87E-09  5.64E-07  2.71E-04  0.99726
    908.  11.013  7.16E-09  5.90E-07  0.00E+00  0.00E+00  0.00E+00  0.00E+00  7.16E-09  5.90E-07  2.71E-04  0.99712
    910.  10.989  7.15E-09  5.92E-07  0.00E+00  0.00E+00  0.00E+00  0.00E+00  7.15E-09  5.92E-07  2.71E-04  0.99711
    912.  10.965  5.44E-09  4.53E-07  0.00E+00  0.00E+00  0.00E+00  0.00E+00  5.44E-09  4.53E-07  2.71E-04  0.99779
    914.  10.941  3.93E-09  3.29E-07  0.00E+00  0.00E+00  0.00E+00  0.00E+00  3.93E-09  3.29E-07  2.71E-04  0.99841
    916.  10.917  2.90E-09  2.43E-07  0.00E+00  0.00E+00  0.00E+00  0.00E+00  2.90E-09  2.43E-07  2.71E-04  0.99883
    918.  10.893  2.22E-09  1.87E-07  0.00E+00  0.00E+00  0.00E+00  0.00E+00  2.22E-09  1.87E-07  2.71E-04  0.99911
    920.  10.870  1.59E-09  1.35E-07  0.00E+00  0.00E+00  0.00E+00  0.00E+00  1.59E-09  1.35E-07  2.71E-04  0.99937
    922.  10.846  1.61E-09  1.37E-07  0.00E+00  0.00E+00  0.00E+00  0.00E+00  1.61E-09  1.37E-07  2.71E-04  0.99937
    924.  10.823  1.22E-09  1.04E-07  0.00E+00  0.00E+00  0.00E+00  0.00E+00  1.22E-09  1.04E-07  2.71E-04  0.99953
    926.  10.799  1.25E-09  1.08E-07  0.00E+00  0.00E+00  0.00E+00  0.00E+00  1.25E-09  1.08E-07  2.71E-04  0.99952
    928.  10.776  1.38E-09  1.19E-07  0.00E+00  0.00E+00  0.00E+00  0.00E+00  1.38E-09  1.19E-07  2.71E-04  0.99947
    930.  10.753  1.48E-09  1.28E-07  0.00E+00  0.00E+00  0.00E+00  0.00E+00  1.48E-09  1.28E-07  2.71E-04  0.99944
    932.  10.730  1.44E-09  1.25E-07  0.00E+00  0.00E+00  0.00E+00  0.00E+00  1.44E-09  1.25E-07  2.71E-04  0.99947
    934.  10.707  1.40E-09  1.22E-07  0.00E+00  0.00E+00  0.00E+00  0.00E+00  1.40E-09  1.22E-07  2.71E-04  0.99951
    936.  10.684  1.45E-09  1.27E-07  0.00E+00  0.00E+00  0.00E+00  0.00E+00  1.45E-09  1.27E-07  2.71E-04  0.99950
    938.  10.661  1.57E-09  1.38E-07  0.00E+00  0.00E+00  0.00E+00  0.00E+00  1.57E-09  1.38E-07  2.71E-04  0.99947
    940.  10.638  1.74E-09  1.54E-07  0.00E+00  0.00E+00  0.00E+00  0.00E+00  1.74E-09  1.54E-07  2.71E-04  0.99941
    942.  10.616  2.75E-09  2.44E-07  0.00E+00  0.00E+00  0.00E+00  0.00E+00  2.75E-09  2.44E-07  2.71E-04  0.99905
    944.  10.593  2.17E-09  1.93E-07  0.00E+00  0.00E+00  0.00E+00  0.00E+00  2.17E-09  1.93E-07  2.71E-04  0.99924
    946.  10.571  2.31E-09  2.07E-07  0.00E+00  0.00E+00  0.00E+00  0.00E+00  2.31E-09  2.07E-07  2.71E-04  0.99918
    948.  10.549  3.46E-09  3.11E-07  0.00E+00  0.00E+00  0.00E+00  0.00E+00  3.46E-09  3.11E-07  2.71E-04  0.99876
    950.  10.526  2.44E-09  2.20E-07  0.00E+00  0.00E+00  0.00E+00  0.00E+00  2.44E-09  2.20E-07  2.71E-04  0.99912
    952.  10.504  2.37E-09  2.14E-07  0.00E+00  0.00E+00  0.00E+00  0.00E+00  2.37E-09  2.14E-07  2.71E-04  0.99914
    954.  10.482  2.26E-09  2.05E-07  0.00E+00  0.00E+00  0.00E+00  0.00E+00  2.26E-09  2.05E-07  2.71E-04  0.99918
    956.  10.460  2.76E-09  2.52E-07  0.00E+00  0.00E+00  0.00E+00  0.00E+00  2.76E-09  2.52E-07  2.71E-04  0.99899
    958.  10.438  1.99E-09  1.83E-07  0.00E+00  0.00E+00  0.00E+00  0.00E+00  1.99E-09  1.83E-07  2.71E-04  0.99928
    960.  10.417  1.32E-09  1.22E-07  0.00E+00  0.00E+00  0.00E+00  0.00E+00  1.32E-09  1.22E-07  2.71E-04  0.99952
    962.  10.395  1.98E-09  1.83E-07  0.00E+00  0.00E+00  0.00E+00  0.00E+00  1.98E-09  1.83E-07  2.71E-04  0.99928
    964.  10.373  2.73E-09  2.53E-07  0.00E+00  0.00E+00  0.00E+00  0.00E+00  2.73E-09  2.53E-07  2.71E-04  0.99900
    966.  10.352  4.43E-09  4.14E-07  0.00E+00  0.00E+00  0.00E+00  0.00E+00  4.43E-09  4.14E-07  2.71E-04  0.99834
    968.  10.331  5.64E-09  5.29E-07  0.00E+00  0.00E+00  0.00E+00  0.00E+00  5.64E-09  5.29E-07  2.71E-04  0.99787
    970.  10.309  6.48E-09  6.10E-07  0.00E+00  0.00E+00  0.00E+00  0.00E+00  6.48E-09  6.10E-07  2.71E-04  0.99755
    972.  10.288  9.78E-09  9.24E-07  0.00E+00  0.00E+00  0.00E+00  0.00E+00  9.78E-09  9.24E-07  2.71E-04  0.99626
    974.  10.267  9.25E-09  8.78E-07  0.00E+00  0.00E+00  0.00E+00  0.00E+00  9.25E-09  8.78E-07  2.71E-04  0.99644
    976.  10.246  1.48E-08  1.41E-06  0.00E+00  0.00E+00  0.00E+00  0.00E+00  1.48E-08  1.41E-06  2.71E-04  0.99425
    978.  10.225  1.66E-08  1.59E-06  0.00E+00  0.00E+00  0.00E+00  0.00E+00  1.66E-08  1.59E-06  2.71E-04  0.99350
    980.  10.204  2.07E-08  1.98E-06  0.00E+00  0.00E+00  0.00E+00  0.00E+00  2.07E-08  1.98E-06  2.71E-04  0.99182
    982.  10.183  2.86E-08  2.76E-06  0.00E+00  0.00E+00  0.00E+00  0.00E+00  2.86E-08  2.76E-06  2.72E-04  0.98850
    984.  10.163  3.35E-08  3.25E-06  0.00E+00  0.00E+00  0.00E+00  0.00E+00  3.35E-08  3.25E-06  2.72E-04  0.98638
    986.  10.142  4.83E-08  4.70E-06  0.00E+00  0.00E+00  0.00E+00  0.00E+00  4.83E-08  4.70E-06  2.72E-04  0.98005
    988.  10.121  6.08E-08  5.94E-06  0.00E+00  0.00E+00  0.00E+00  0.00E+00  6.08E-08  5.94E-06  2.72E-04  0.97452
    990.  10.101  7.74E-08  7.58E-06  0.00E+00  0.00E+00  0.00E+00  0.00E+00  7.74E-08  7.58E-06  2.72E-04  0.96709
    992.  10.081  1.05E-07  1.04E-05  0.00E+00  0.00E+00  0.00E+00  0.00E+00  1.05E-07  1.04E-05  2.72E-04  0.95425
    994.  10.060  1.24E-07  1.23E-05  0.00E+00  0.00E+00  0.00E+00  0.00E+00  1.24E-07  1.23E-05  2.72E-04  0.94487
    996.  10.040  1.52E-07  1.50E-05  0.00E+00  0.00E+00  0.00E+00  0.00E+00  1.52E-07  1.50E-05  2.73E-04  0.93078
    998.  10.020  1.93E-07  1.92E-05  0.00E+00  0.00E+00  0.00E+00  0.00E+00  1.93E-07  1.92E-05  2.73E-04  0.90955
1                                             RADIANCE(WATTS/CM2-STER-XXX)
0  FREQ   WAVLEN    PATH THERMAL      SURFACE EMISSION    SURFACE REFLECTED     TOTAL RADIANCE   INTEGRAL    TOTAL
  (CM-1) (MICRN)    (CM-1)   (MICRN)    (CM-1)   (MICRN)    (CM-1)   (MICRN)    (CM-1)   (MICRN)    (CM-1)   TRANS

   1000.  10.000  2.12E-07  2.12E-05  0.00E+00  0.00E+00  0.00E+00  0.00E+00  2.12E-07  2.12E-05  2.74E-04  0.89751
   1002.   9.980  2.64E-07  2.65E-05  0.00E+00  0.00E+00  0.00E+00  0.00E+00  2.64E-07  2.65E-05  2.74E-04  0.86812
   1004.   9.960  2.86E-07  2.88E-05  0.00E+00  0.00E+00  0.00E+00  0.00E+00  2.86E-07  2.88E-05  2.75E-04  0.85450
   1006.   9.940  3.35E-07  3.39E-05  0.00E+00  0.00E+00  0.00E+00  0.00E+00  3.35E-07  3.39E-05  2.75E-04  0.82189
   1008.   9.921  3.44E-07  3.49E-05  0.00E+00  0.00E+00  0.00E+00  0.00E+00  3.44E-07  3.49E-05  2.76E-04  0.81280
   1010.   9.901  3.78E-07  3.86E-05  0.00E+00  0.00E+00  0.00E+00  0.00E+00  3.78E-07  3.86E-05  2.77E-04  0.78783
   1012.   9.881  4.16E-07  4.26E-05  0.00E+00  0.00E+00  0.00E+00  0.00E+00  4.16E-07  4.26E-05  2.78E-04  0.76153
   1014.   9.862  4.55E-07  4.68E-05  0.00E+00  0.00E+00  0.00E+00  0.00E+00  4.55E-07  4.68E-05  2.78E-04  0.73459
   1016.   9.843  4.60E-07  4.75E-05  0.00E+00  0.00E+00  0.00E+00  0.00E+00  4.60E-07  4.75E-05  2.79E-04  0.72819
   1018.   9.823  5.20E-07  5.39E-05  0.00E+00  0.00E+00  0.00E+00  0.00E+00  5.20E-07  5.39E-05  2.80E-04  0.68653
   1020.   9.804  5.40E-07  5.62E-05  0.00E+00  0.00E+00  0.00E+00  0.00E+00  5.40E-07  5.62E-05  2.82E-04  0.67028
   1022.   9.785  5.67E-07  5.92E-05  0.00E+00  0.00E+00  0.00E+00  0.00E+00  5.67E-07  5.92E-05  2.83E-04  0.64888
   1024.   9.766  5.84E-07  6.12E-05  0.00E+00  0.00E+00  0.00E+00  0.00E+00  5.84E-07  6.12E-05  2.84E-04  0.63556
   1026.   9.747  5.54E-07  5.83E-05  0.00E+00  0.00E+00  0.00E+00  0.00E+00  5.54E-07  5.83E-05  2.85E-04  0.65060
   1028.   9.728  5.59E-07  5.90E-05  0.00E+00  0.00E+00  0.00E+00  0.00E+00  5.59E-07  5.90E-05  2.86E-04  0.64398
   1030.   9.709  5.90E-07  6.26E-05  0.00E+00  0.00E+00  0.00E+00  0.00E+00  5.90E-07  6.26E-05  2.87E-04  0.62083
   1032.   9.690  5.69E-07  6.06E-05  0.00E+00  0.00E+00  0.00E+00  0.00E+00  5.69E-07  6.06E-05  2.88E-04  0.63434
   1034.   9.671  5.96E-07  6.37E-05  0.00E+00  0.00E+00  0.00E+00  0.00E+00  5.96E-07  6.37E-05  2.90E-04  0.61668
   1036.   9.653  6.43E-07  6.90E-05  0.00E+00  0.00E+00  0.00E+00  0.00E+00  6.43E-07  6.90E-05  2.91E-04  0.58393
   1038.   9.634  6.69E-07  7.20E-05  0.00E+00  0.00E+00  0.00E+00  0.00E+00  6.69E-07  7.20E-05  2.92E-04  0.56279
   1040.   9.615  7.08E-07  7.65E-05  0.00E+00  0.00E+00  0.00E+00  0.00E+00  7.08E-07  7.65E-05  2.94E-04  0.52977
   1042.   9.597  4.42E-07  4.80E-05  0.00E+00  0.00E+00  0.00E+00  0.00E+00  4.42E-07  4.80E-05  2.94E-04  0.71222
   1044.   9.579  2.36E-07  2.57E-05  0.00E+00  0.00E+00  0.00E+00  0.00E+00  2.36E-07  2.57E-05  2.95E-04  0.85593
   1046.   9.560  4.60E-07  5.03E-05  0.00E+00  0.00E+00  0.00E+00  0.00E+00  4.60E-07  5.03E-05  2.96E-04  0.69254
   1048.   9.542  6.03E-07  6.62E-05  0.00E+00  0.00E+00  0.00E+00  0.00E+00  6.03E-07  6.62E-05  2.97E-04  0.58572
   1050.   9.524  6.03E-07  6.65E-05  0.00E+00  0.00E+00  0.00E+00  0.00E+00  6.03E-07  6.65E-05  2.98E-04  0.58030
   1052.   9.506  6.54E-07  7.24E-05  0.00E+00  0.00E+00  0.00E+00  0.00E+00  6.54E-07  7.24E-05  3.00E-04  0.53863
   1054.   9.488  6.55E-07  7.27E-05  0.00E+00  0.00E+00  0.00E+00  0.00E+00  6.55E-07  7.27E-05  3.01E-04  0.53520
   1056.   9.470  6.56E-07  7.31E-05  0.00E+00  0.00E+00  0.00E+00  0.00E+00  6.56E-07  7.31E-05  3.02E-04  0.53246
   1058.   9.452  5.87E-07  6.57E-05  0.00E+00  0.00E+00  0.00E+00  0.00E+00  5.87E-07  6.57E-05  3.03E-04  0.58143
   1060.   9.434  5.16E-07  5.80E-05  0.00E+00  0.00E+00  0.00E+00  0.00E+00  5.16E-07  5.80E-05  3.04E-04  0.63361
   1062.   9.416  4.71E-07  5.31E-05  0.00E+00  0.00E+00  0.00E+00  0.00E+00  4.71E-07  5.31E-05  3.05E-04  0.67034
   1064.   9.398  3.55E-07  4.01E-05  0.00E+00  0.00E+00  0.00E+00  0.00E+00  3.55E-07  4.01E-05  3.06E-04  0.75905
   1066.   9.381  2.40E-07  2.72E-05  0.00E+00  0.00E+00  0.00E+00  0.00E+00  2.40E-07  2.72E-05  3.07E-04  0.84458
   1068.   9.363  1.62E-07  1.85E-05  0.00E+00  0.00E+00  0.00E+00  0.00E+00  1.62E-07  1.85E-05  3.07E-04  0.90279
   1070.   9.346  8.24E-08  9.43E-06  0.00E+00  0.00E+00  0.00E+00  0.00E+00  8.24E-08  9.43E-06  3.07E-04  0.95253
   1072.   9.328  3.77E-08  4.33E-06  0.00E+00  0.00E+00  0.00E+00  0.00E+00  3.77E-08  4.33E-06  3.07E-04  0.97849
   1074.   9.311  3.81E-08  4.39E-06  0.00E+00  0.00E+00  0.00E+00  0.00E+00  3.81E-08  4.39E-06  3.07E-04  0.97738
   1076.   9.294  3.92E-08  4.54E-06  0.00E+00  0.00E+00  0.00E+00  0.00E+00  3.92E-08  4.54E-06  3.07E-04  0.97652
   1078.   9.276  2.69E-08  3.13E-06  0.00E+00  0.00E+00  0.00E+00  0.00E+00  2.69E-08  3.13E-06  3.07E-04  0.98379
   1080.   9.259  3.91E-08  4.56E-06  0.00E+00  0.00E+00  0.00E+00  0.00E+00  3.91E-08  4.56E-06  3.07E-04  0.97609
   1082.   9.242  3.88E-08  4.54E-06  0.00E+00  0.00E+00  0.00E+00  0.00E+00  3.88E-08  4.54E-06  3.07E-04  0.97610
   1084.   9.225  2.64E-08  3.10E-06  0.00E+00  0.00E+00  0.00E+00  0.00E+00  2.64E-08  3.10E-06  3.08E-04  0.98368
   1086.   9.208  3.27E-08  3.86E-06  0.00E+00  0.00E+00  0.00E+00  0.00E+00  3.27E-08  3.86E-06  3.08E-04  0.97949
   1088.   9.191  3.61E-08  4.27E-06  0.00E+00  0.00E+00  0.00E+00  0.00E+00  3.61E-08  4.27E-06  3.08E-04  0.97705
   1090.   9.174  3.06E-08  3.63E-06  0.00E+00  0.00E+00  0.00E+00  0.00E+00  3.06E-08  3.63E-06  3.08E-04  0.98048
   1092.   9.158  2.61E-08  3.11E-06  0.00E+00  0.00E+00  0.00E+00  0.00E+00  2.61E-08  3.11E-06  3.08E-04  0.98318
   1094.   9.141  3.34E-08  4.00E-06  0.00E+00  0.00E+00  0.00E+00  0.00E+00  3.34E-08  4.00E-06  3.08E-04  0.97814
   1096.   9.124  2.47E-08  2.97E-06  0.00E+00  0.00E+00  0.00E+00  0.00E+00  2.47E-08  2.97E-06  3.08E-04  0.98377
   1098.   9.107  2.56E-08  3.08E-06  0.00E+00  0.00E+00  0.00E+00  0.00E+00  2.56E-08  3.08E-06  3.08E-04  0.98302
1                                             RADIANCE(WATTS/CM2-STER-XXX)
0  FREQ   WAVLEN    PATH THERMAL      SURFACE EMISSION    SURFACE REFLECTED     TOTAL RADIANCE   INTEGRAL    TOTAL
  (CM-1) (MICRN)    (CM-1)   (MICRN)    (CM-1)   (MICRN)    (CM-1)   (MICRN)    (CM-1)   (MICRN)    (CM-1)   TRANS

   1100.   9.091  2.66E-08  3.21E-06  0.00E+00  0.00E+00  0.00E+00  0.00E+00  2.66E-08  3.21E-06  3.08E-04  0.98228
   1102.   9.074  2.70E-08  3.27E-06  0.00E+00  0.00E+00  0.00E+00  0.00E+00  2.70E-08  3.27E-06  3.08E-04  0.98185
   1104.   9.058  2.17E-08  2.64E-06  0.00E+00  0.00E+00  0.00E+00  0.00E+00  2.17E-08  2.64E-06  3.08E-04  0.98540
   1106.   9.042  1.99E-08  2.44E-06  0.00E+00  0.00E+00  0.00E+00  0.00E+00  1.99E-08  2.44E-06  3.08E-04  0.98647
   1108.   9.025  2.07E-08  2.54E-06  0.00E+00  0.00E+00  0.00E+00  0.00E+00  2.07E-08  2.54E-06  3.08E-04  0.98580
   1110.   9.009  2.10E-08  2.59E-06  0.00E+00  0.00E+00  0.00E+00  0.00E+00  2.10E-08  2.59E-06  3.08E-04  0.98536
   1112.   8.993  2.54E-08  3.14E-06  0.00E+00  0.00E+00  0.00E+00  0.00E+00  2.54E-08  3.14E-06  3.08E-04  0.98210
   1114.   8.977  2.80E-08  3.48E-06  0.00E+00  0.00E+00  0.00E+00  0.00E+00  2.80E-08  3.48E-06  3.08E-04  0.98005
   1116.   8.961  2.71E-08  3.38E-06  0.00E+00  0.00E+00  0.00E+00  0.00E+00  2.71E-08  3.38E-06  3.08E-04  0.98039
   1118.   8.945  3.75E-08  4.69E-06  0.00E+00  0.00E+00  0.00E+00  0.00E+00  3.75E-08  4.69E-06  3.08E-04  0.97251
   1120.   8.929  3.10E-08  3.89E-06  0.00E+00  0.00E+00  0.00E+00  0.00E+00  3.10E-08  3.89E-06  3.09E-04  0.97709
   1122.   8.913  3.68E-08  4.63E-06  0.00E+00  0.00E+00  0.00E+00  0.00E+00  3.68E-08  4.63E-06  3.09E-04  0.97272
   1124.   8.897  4.05E-08  5.12E-06  0.00E+00  0.00E+00  0.00E+00  0.00E+00  4.05E-08  5.12E-06  3.09E-04  0.96981
   1126.   8.881  3.78E-08  4.79E-06  0.00E+00  0.00E+00  0.00E+00  0.00E+00  3.78E-08  4.79E-06  3.09E-04  0.97150
   1128.   8.865  3.34E-08  4.25E-06  0.00E+00  0.00E+00  0.00E+00  0.00E+00  3.34E-08  4.25E-06  3.09E-04  0.97486
   1130.   8.850  3.38E-08  4.32E-06  0.00E+00  0.00E+00  0.00E+00  0.00E+00  3.38E-08  4.32E-06  3.09E-04  0.97476
   1132.   8.834  2.81E-08  3.60E-06  0.00E+00  0.00E+00  0.00E+00  0.00E+00  2.81E-08  3.60E-06  3.09E-04  0.97896
   1134.   8.818  2.96E-08  3.81E-06  0.00E+00  0.00E+00  0.00E+00  0.00E+00  2.96E-08  3.81E-06  3.09E-04  0.97772
   1136.   8.803  2.75E-08  3.55E-06  0.00E+00  0.00E+00  0.00E+00  0.00E+00  2.75E-08  3.55E-06  3.09E-04  0.97923
   1138.   8.787  2.45E-08  3.17E-06  0.00E+00  0.00E+00  0.00E+00  0.00E+00  2.45E-08  3.17E-06  3.09E-04  0.98148
   1140.   8.772  1.74E-08  2.27E-06  0.00E+00  0.00E+00  0.00E+00  0.00E+00  1.74E-08  2.27E-06  3.09E-04  0.98674
   1142.   8.757  1.81E-08  2.36E-06  0.00E+00  0.00E+00  0.00E+00  0.00E+00  1.81E-08  2.36E-06  3.09E-04  0.98605
   1144.   8.741  1.83E-08  2.40E-06  0.00E+00  0.00E+00  0.00E+00  0.00E+00  1.83E-08  2.40E-06  3.09E-04  0.98568
   1146.   8.726  1.66E-08  2.19E-06  0.00E+00  0.00E+00  0.00E+00  0.00E+00  1.66E-08  2.19E-06  3.09E-04  0.98687
   1148.   8.711  1.78E-08  2.35E-06  0.00E+00  0.00E+00  0.00E+00  0.00E+00  1.78E-08  2.35E-06  3.09E-04  0.98585
   1150.   8.696  1.64E-08  2.17E-06  0.00E+00  0.00E+00  0.00E+00  0.00E+00  1.64E-08  2.17E-06  3.09E-04  0.98679
   1152.   8.681  1.32E-08  1.76E-06  0.00E+00  0.00E+00  0.00E+00  0.00E+00  1.32E-08  1.76E-06  3.09E-04  0.98915
   1154.   8.666  1.27E-08  1.69E-06  0.00E+00  0.00E+00  0.00E+00  0.00E+00  1.27E-08  1.69E-06  3.09E-04  0.98947
   1156.   8.651  1.49E-08  1.99E-06  0.00E+00  0.00E+00  0.00E+00  0.00E+00  1.49E-08  1.99E-06  3.09E-04  0.98763
   1158.   8.636  1.28E-08  1.72E-06  0.00E+00  0.00E+00  0.00E+00  0.00E+00  1.28E-08  1.72E-06  3.09E-04  0.98921
   1160.   8.621  1.28E-08  1.72E-06  0.00E+00  0.00E+00  0.00E+00  0.00E+00  1.28E-08  1.72E-06  3.09E-04  0.98923
   1162.   8.606  1.07E-08  1.45E-06  0.00E+00  0.00E+00  0.00E+00  0.00E+00  1.07E-08  1.45E-06  3.09E-04  0.99091
   1164.   8.591  1.05E-08  1.43E-06  0.00E+00  0.00E+00  0.00E+00  0.00E+00  1.05E-08  1.43E-06  3.10E-04  0.99107
   1166.   8.576  9.30E-09  1.26E-06  0.00E+00  0.00E+00  0.00E+00  0.00E+00  9.30E-09  1.26E-06  3.10E-04  0.99210
   1168.   8.562  8.40E-09  1.15E-06  0.00E+00  0.00E+00  0.00E+00  0.00E+00  8.40E-09  1.15E-06  3.10E-04  0.99290
   1170.   8.547  7.07E-09  9.68E-07  0.00E+00  0.00E+00  0.00E+00  0.00E+00  7.07E-09  9.68E-07  3.10E-04  0.99392
   1172.   8.532  9.08E-09  1.25E-06  0.00E+00  0.00E+00  0.00E+00  0.00E+00  9.08E-09  1.25E-06  3.10E-04  0.99206
   1174.   8.518  7.07E-09  9.74E-07  0.00E+00  0.00E+00  0.00E+00  0.00E+00  7.07E-09  9.74E-07  3.10E-04  0.99376
   1176.   8.503  7.34E-09  1.02E-06  0.00E+00  0.00E+00  0.00E+00  0.00E+00  7.34E-09  1.02E-06  3.10E-04  0.99338
   1178.   8.489  6.76E-09  9.38E-07  0.00E+00  0.00E+00  0.00E+00  0.00E+00  6.76E-09  9.38E-07  3.10E-04  0.99379
   1180.   8.475  6.26E-09  8.72E-07  0.00E+00  0.00E+00  0.00E+00  0.00E+00  6.26E-09  8.72E-07  3.10E-04  0.99425
   1182.   8.460  5.35E-09  7.47E-07  0.00E+00  0.00E+00  0.00E+00  0.00E+00  5.35E-09  7.47E-07  3.10E-04  0.99502
   1184.   8.446  5.46E-09  7.66E-07  0.00E+00  0.00E+00  0.00E+00  0.00E+00  5.46E-09  7.66E-07  3.10E-04  0.99478
   1186.   8.432  4.84E-09  6.81E-07  0.00E+00  0.00E+00  0.00E+00  0.00E+00  4.84E-09  6.81E-07  3.10E-04  0.99544
   1188.   8.418  3.98E-09  5.61E-07  0.00E+00  0.00E+00  0.00E+00  0.00E+00  3.98E-09  5.61E-07  3.10E-04  0.99620
   1190.   8.403  3.84E-09  5.44E-07  0.00E+00  0.00E+00  0.00E+00  0.00E+00  3.84E-09  5.44E-07  3.10E-04  0.99626
   1192.   8.389  3.58E-09  5.09E-07  0.00E+00  0.00E+00  0.00E+00  0.00E+00  3.58E-09  5.09E-07  3.10E-04  0.99650
   1194.   8.375  2.76E-09  3.93E-07  0.00E+00  0.00E+00  0.00E+00  0.00E+00  2.76E-09  3.93E-07  3.10E-04  0.99731
   1196.   8.361  2.38E-09  3.40E-07  0.00E+00  0.00E+00  0.00E+00  0.00E+00  2.38E-09  3.40E-07  3.10E-04  0.99766
   1198.   8.347  2.42E-09  3.48E-07  0.00E+00  0.00E+00  0.00E+00  0.00E+00  2.42E-09  3.48E-07  3.10E-04  0.99759
1                                             RADIANCE(WATTS/CM2-STER-XXX)
0  FREQ   WAVLEN    PATH THERMAL      SURFACE EMISSION    SURFACE REFLECTED     TOTAL RADIANCE   INTEGRAL    TOTAL
  (CM-1) (MICRN)    (CM-1)   (MICRN)    (CM-1)   (MICRN)    (CM-1)   (MICRN)    (CM-1)   (MICRN)    (CM-1)   TRANS

   1200.   8.333  1.97E-09  2.84E-07  0.00E+00  0.00E+00  0.00E+00  0.00E+00  1.97E-09  2.84E-07  3.10E-04  0.99802
   1202.   8.319  1.95E-09  2.81E-07  0.00E+00  0.00E+00  0.00E+00  0.00E+00  1.95E-09  2.81E-07  3.10E-04  0.99801
   1204.   8.306  1.72E-09  2.49E-07  0.00E+00  0.00E+00  0.00E+00  0.00E+00  1.72E-09  2.49E-07  3.10E-04  0.99820
   1206.   8.292  1.43E-09  2.07E-07  0.00E+00  0.00E+00  0.00E+00  0.00E+00  1.43E-09  2.07E-07  3.10E-04  0.99851
   1208.   8.278  1.25E-09  1.82E-07  0.00E+00  0.00E+00  0.00E+00  0.00E+00  1.25E-09  1.82E-07  3.10E-04  0.99869
   1210.   8.264  1.85E-09  2.71E-07  0.00E+00  0.00E+00  0.00E+00  0.00E+00  1.85E-09  2.71E-07  3.10E-04  0.99800
   1212.   8.251  2.48E-09  3.65E-07  0.00E+00  0.00E+00  0.00E+00  0.00E+00  2.48E-09  3.65E-07  3.10E-04  0.99734
   1214.   8.237  9.46E-10  1.39E-07  0.00E+00  0.00E+00  0.00E+00  0.00E+00  9.46E-10  1.39E-07  3.10E-04  0.99895
   1216.   8.224  1.93E-09  2.86E-07  0.00E+00  0.00E+00  0.00E+00  0.00E+00  1.93E-09  2.86E-07  3.10E-04  0.99780
   1218.   8.210  1.77E-09  2.63E-07  0.00E+00  0.00E+00  0.00E+00  0.00E+00  1.77E-09  2.63E-07  3.10E-04  0.99798
   1220.   8.197  3.67E-09  5.46E-07  0.00E+00  0.00E+00  0.00E+00  0.00E+00  3.67E-09  5.46E-07  3.10E-04  0.99573
   1222.   8.183  3.21E-09  4.79E-07  0.00E+00  0.00E+00  0.00E+00  0.00E+00  3.21E-09  4.79E-07  3.10E-04  0.99624
   1224.   8.170  2.13E-09  3.20E-07  0.00E+00  0.00E+00  0.00E+00  0.00E+00  2.13E-09  3.20E-07  3.10E-04  0.99754
   1226.   8.157  2.17E-09  3.26E-07  0.00E+00  0.00E+00  0.00E+00  0.00E+00  2.17E-09  3.26E-07  3.10E-04  0.99746
   1228.   8.143  2.58E-09  3.89E-07  0.00E+00  0.00E+00  0.00E+00  0.00E+00  2.58E-09  3.89E-07  3.10E-04  0.99685
   1230.   8.130  5.74E-09  8.68E-07  0.00E+00  0.00E+00  0.00E+00  0.00E+00  5.74E-09  8.68E-07  3.10E-04  0.99302
   1232.   8.117  1.49E-09  2.26E-07  0.00E+00  0.00E+00  0.00E+00  0.00E+00  1.49E-09  2.26E-07  3.10E-04  0.99815
   1234.   8.104  1.50E-09  2.28E-07  0.00E+00  0.00E+00  0.00E+00  0.00E+00  1.50E-09  2.28E-07  3.10E-04  0.99814
   1236.   8.091  8.45E-09  1.29E-06  0.00E+00  0.00E+00  0.00E+00  0.00E+00  8.45E-09  1.29E-06  3.10E-04  0.98925
   1238.   8.078  6.55E-09  1.00E-06  0.00E+00  0.00E+00  0.00E+00  0.00E+00  6.55E-09  1.00E-06  3.10E-04  0.99150
   1240.   8.065  4.82E-09  7.40E-07  0.00E+00  0.00E+00  0.00E+00  0.00E+00  4.82E-09  7.40E-07  3.10E-04  0.99370
   1242.   8.052  9.17E-09  1.41E-06  0.00E+00  0.00E+00  0.00E+00  0.00E+00  9.17E-09  1.41E-06  3.10E-04  0.98791
   1244.   8.039  6.95E-09  1.08E-06  0.00E+00  0.00E+00  0.00E+00  0.00E+00  6.95E-09  1.08E-06  3.10E-04  0.99063
   1246.   8.026  1.15E-08  1.78E-06  0.00E+00  0.00E+00  0.00E+00  0.00E+00  1.15E-08  1.78E-06  3.10E-04  0.98392
   1248.   8.013  1.49E-08  2.33E-06  0.00E+00  0.00E+00  0.00E+00  0.00E+00  1.49E-08  2.33E-06  3.10E-04  0.97891
   1250.   8.000  9.00E-09  1.41E-06  0.00E+00  0.00E+00  0.00E+00  0.00E+00  9.00E-09  1.41E-06  3.10E-04  0.98733
   1252.   7.987  6.55E-09  1.03E-06  0.00E+00  0.00E+00  0.00E+00  0.00E+00  6.55E-09  1.03E-06  3.10E-04  0.99068
   1254.   7.974  2.23E-08  3.51E-06  0.00E+00  0.00E+00  0.00E+00  0.00E+00  2.23E-08  3.51E-06  3.10E-04  0.96744
   1256.   7.962  1.14E-08  1.80E-06  0.00E+00  0.00E+00  0.00E+00  0.00E+00  1.14E-08  1.80E-06  3.10E-04  0.98321
   1258.   7.949  1.01E-08  1.59E-06  0.00E+00  0.00E+00  0.00E+00  0.00E+00  1.01E-08  1.59E-06  3.10E-04  0.98505
   1260.   7.937  2.61E-08  4.14E-06  0.00E+00  0.00E+00  0.00E+00  0.00E+00  2.61E-08  4.14E-06  3.10E-04  0.96028
   1262.   7.924  2.74E-08  4.36E-06  0.00E+00  0.00E+00  0.00E+00  0.00E+00  2.74E-08  4.36E-06  3.10E-04  0.95730
   1264.   7.911  1.88E-08  3.01E-06  0.00E+00  0.00E+00  0.00E+00  0.00E+00  1.88E-08  3.01E-06  3.10E-04  0.97043
   1266.   7.899  2.35E-08  3.77E-06  0.00E+00  0.00E+00  0.00E+00  0.00E+00  2.35E-08  3.77E-06  3.10E-04  0.96256
   1268.   7.886  3.52E-08  5.66E-06  0.00E+00  0.00E+00  0.00E+00  0.00E+00  3.52E-08  5.66E-06  3.10E-04  0.94262
   1270.   7.874  2.70E-08  4.35E-06  0.00E+00  0.00E+00  0.00E+00  0.00E+00  2.70E-08  4.35E-06  3.10E-04  0.95610
   1272.   7.862  2.94E-08  4.76E-06  0.00E+00  0.00E+00  0.00E+00  0.00E+00  2.94E-08  4.76E-06  3.10E-04  0.95210
   1274.   7.849  2.56E-08  4.15E-06  0.00E+00  0.00E+00  0.00E+00  0.00E+00  2.56E-08  4.15E-06  3.10E-04  0.95736
   1276.   7.837  3.16E-08  5.15E-06  0.00E+00  0.00E+00  0.00E+00  0.00E+00  3.16E-08  5.15E-06  3.11E-04  0.94675
   1278.   7.825  2.12E-08  3.46E-06  0.00E+00  0.00E+00  0.00E+00  0.00E+00  2.12E-08  3.46E-06  3.11E-04  0.96425
   1280.   7.813  1.46E-08  2.39E-06  0.00E+00  0.00E+00  0.00E+00  0.00E+00  1.46E-08  2.39E-06  3.11E-04  0.97594
   1282.   7.800  3.16E-08  5.19E-06  0.00E+00  0.00E+00  0.00E+00  0.00E+00  3.16E-08  5.19E-06  3.11E-04  0.94545
   1284.   7.788  1.65E-08  2.72E-06  0.00E+00  0.00E+00  0.00E+00  0.00E+00  1.65E-08  2.72E-06  3.11E-04  0.97151
   1286.   7.776  8.99E-09  1.49E-06  0.00E+00  0.00E+00  0.00E+00  0.00E+00  8.99E-09  1.49E-06  3.11E-04  0.98539
   1288.   7.764  3.32E-08  5.51E-06  0.00E+00  0.00E+00  0.00E+00  0.00E+00  3.32E-08  5.51E-06  3.11E-04  0.94169
   1290.   7.752  2.29E-08  3.81E-06  0.00E+00  0.00E+00  0.00E+00  0.00E+00  2.29E-08  3.81E-06  3.11E-04  0.96044
   1292.   7.740  2.24E-08  3.74E-06  0.00E+00  0.00E+00  0.00E+00  0.00E+00  2.24E-08  3.74E-06  3.11E-04  0.96092
   1294.   7.728  3.68E-08  6.16E-06  0.00E+00  0.00E+00  0.00E+00  0.00E+00  3.68E-08  6.16E-06  3.11E-04  0.93499
   1296.   7.716  3.29E-08  5.53E-06  0.00E+00  0.00E+00  0.00E+00  0.00E+00  3.29E-08  5.53E-06  3.11E-04  0.94153
   1298.   7.704  3.92E-08  6.61E-06  0.00E+00  0.00E+00  0.00E+00  0.00E+00  3.92E-08  6.61E-06  3.11E-04  0.93057
1                                             RADIANCE(WATTS/CM2-STER-XXX)
0  FREQ   WAVLEN    PATH THERMAL      SURFACE EMISSION    SURFACE REFLECTED     TOTAL RADIANCE   INTEGRAL    TOTAL
  (CM-1) (MICRN)    (CM-1)   (MICRN)    (CM-1)   (MICRN)    (CM-1)   (MICRN)    (CM-1)   (MICRN)    (CM-1)   TRANS

   1300.   7.692  4.16E-08  7.02E-06  0.00E+00  0.00E+00  0.00E+00  0.00E+00  4.16E-08  7.02E-06  3.11E-04  0.92422
   1302.   7.680  5.37E-08  9.11E-06  0.00E+00  0.00E+00  0.00E+00  0.00E+00  5.37E-08  9.11E-06  3.11E-04  0.89911
   1304.   7.669  7.76E-08  1.32E-05  0.00E+00  0.00E+00  0.00E+00  0.00E+00  7.76E-08  1.32E-05  3.11E-04  0.85080
   1306.   7.657  9.86E-08  1.68E-05  0.00E+00  0.00E+00  0.00E+00  0.00E+00  9.86E-08  1.68E-05  3.12E-04  0.80791
   1308.   7.645  1.47E-08  2.51E-06  0.00E+00  0.00E+00  0.00E+00  0.00E+00  1.47E-08  2.51E-06  3.12E-04  0.97345
   1310.   7.634  1.34E-08  2.30E-06  0.00E+00  0.00E+00  0.00E+00  0.00E+00  1.34E-08  2.30E-06  3.12E-04  0.97477
   1312.   7.622  1.39E-08  2.39E-06  0.00E+00  0.00E+00  0.00E+00  0.00E+00  1.39E-08  2.39E-06  3.12E-04  0.97440
   1314.   7.610  9.50E-09  1.64E-06  0.00E+00  0.00E+00  0.00E+00  0.00E+00  9.50E-09  1.64E-06  3.12E-04  0.98335
   1316.   7.599  1.11E-08  1.92E-06  0.00E+00  0.00E+00  0.00E+00  0.00E+00  1.11E-08  1.92E-06  3.12E-04  0.97920
   1318.   7.587  1.14E-08  1.97E-06  0.00E+00  0.00E+00  0.00E+00  0.00E+00  1.14E-08  1.97E-06  3.12E-04  0.97890
   1320.   7.576  8.11E-09  1.41E-06  0.00E+00  0.00E+00  0.00E+00  0.00E+00  8.11E-09  1.41E-06  3.12E-04  0.98570
   1322.   7.564  1.61E-08  2.82E-06  0.00E+00  0.00E+00  0.00E+00  0.00E+00  1.61E-08  2.82E-06  3.12E-04  0.96664
   1324.   7.553  4.54E-09  7.95E-07  0.00E+00  0.00E+00  0.00E+00  0.00E+00  4.54E-09  7.95E-07  3.12E-04  0.99138
   1326.   7.541  1.59E-08  2.80E-06  0.00E+00  0.00E+00  0.00E+00  0.00E+00  1.59E-08  2.80E-06  3.12E-04  0.96623
   1328.   7.530  1.38E-08  2.44E-06  0.00E+00  0.00E+00  0.00E+00  0.00E+00  1.38E-08  2.44E-06  3.12E-04  0.97038
   1330.   7.519  2.62E-09  4.63E-07  0.00E+00  0.00E+00  0.00E+00  0.00E+00  2.62E-09  4.63E-07  3.12E-04  0.99496
   1332.   7.508  2.29E-08  4.07E-06  0.00E+00  0.00E+00  0.00E+00  0.00E+00  2.29E-08  4.07E-06  3.12E-04  0.94964
   1334.   7.496  1.17E-08  2.08E-06  0.00E+00  0.00E+00  0.00E+00  0.00E+00  1.17E-08  2.08E-06  3.12E-04  0.97470
   1336.   7.485  1.01E-08  1.81E-06  0.00E+00  0.00E+00  0.00E+00  0.00E+00  1.01E-08  1.81E-06  3.12E-04  0.97885
   1338.   7.474  2.61E-08  4.67E-06  0.00E+00  0.00E+00  0.00E+00  0.00E+00  2.61E-08  4.67E-06  3.12E-04  0.94439
   1340.   7.463  1.17E-08  2.10E-06  0.00E+00  0.00E+00  0.00E+00  0.00E+00  1.17E-08  2.10E-06  3.12E-04  0.97905
   1342.   7.452  2.80E-08  5.05E-06  0.00E+00  0.00E+00  0.00E+00  0.00E+00  2.80E-08  5.05E-06  3.12E-04  0.93623
   1344.   7.440  1.05E-08  1.90E-06  0.00E+00  0.00E+00  0.00E+00  0.00E+00  1.05E-08  1.90E-06  3.12E-04  0.97648
   1346.   7.429  1.30E-08  2.36E-06  0.00E+00  0.00E+00  0.00E+00  0.00E+00  1.30E-08  2.36E-06  3.12E-04  0.97059
   1348.   7.418  1.91E-08  3.47E-06  0.00E+00  0.00E+00  0.00E+00  0.00E+00  1.91E-08  3.47E-06  3.12E-04  0.95725
   1350.   7.407  7.08E-09  1.29E-06  0.00E+00  0.00E+00  0.00E+00  0.00E+00  7.08E-09  1.29E-06  3.12E-04  0.98480
   1352.   7.396  1.51E-08  2.75E-06  0.00E+00  0.00E+00  0.00E+00  0.00E+00  1.51E-08  2.75E-06  3.12E-04  0.96611
   1354.   7.386  9.55E-09  1.75E-06  0.00E+00  0.00E+00  0.00E+00  0.00E+00  9.55E-09  1.75E-06  3.12E-04  0.97877
   1356.   7.375  1.43E-08  2.63E-06  0.00E+00  0.00E+00  0.00E+00  0.00E+00  1.43E-08  2.63E-06  3.12E-04  0.96840
   1358.   7.364  7.44E-09  1.37E-06  0.00E+00  0.00E+00  0.00E+00  0.00E+00  7.44E-09  1.37E-06  3.12E-04  0.98385
   1360.   7.353  9.56E-09  1.77E-06  0.00E+00  0.00E+00  0.00E+00  0.00E+00  9.56E-09  1.77E-06  3.12E-04  0.97917
   1362.   7.342  1.18E-08  2.18E-06  0.00E+00  0.00E+00  0.00E+00  0.00E+00  1.18E-08  2.18E-06  3.12E-04  0.97438
   1364.   7.331  1.01E-08  1.87E-06  0.00E+00  0.00E+00  0.00E+00  0.00E+00  1.01E-08  1.87E-06  3.12E-04  0.97827
   1366.   7.321  4.43E-09  8.26E-07  0.00E+00  0.00E+00  0.00E+00  0.00E+00  4.43E-09  8.26E-07  3.12E-04  0.99038
   1368.   7.310  5.85E-09  1.09E-06  0.00E+00  0.00E+00  0.00E+00  0.00E+00  5.85E-09  1.09E-06  3.12E-04  0.98756
   1370.   7.299  4.42E-09  8.29E-07  0.00E+00  0.00E+00  0.00E+00  0.00E+00  4.42E-09  8.29E-07  3.12E-04  0.99076
   1372.   7.289  2.35E-09  4.42E-07  0.00E+00  0.00E+00  0.00E+00  0.00E+00  2.35E-09  4.42E-07  3.12E-04  0.99515
   1374.   7.278  1.02E-08  1.92E-06  0.00E+00  0.00E+00  0.00E+00  0.00E+00  1.02E-08  1.92E-06  3.12E-04  0.97635
   1376.   7.267  3.65E-09  6.92E-07  0.00E+00  0.00E+00  0.00E+00  0.00E+00  3.65E-09  6.92E-07  3.12E-04  0.99155
   1378.   7.257  2.84E-09  5.39E-07  0.00E+00  0.00E+00  0.00E+00  0.00E+00  2.84E-09  5.39E-07  3.12E-04  0.99460
   1380.   7.246  1.82E-09  3.46E-07  0.00E+00  0.00E+00  0.00E+00  0.00E+00  1.82E-09  3.46E-07  3.12E-04  0.99649
   1382.   7.236  8.12E-10  1.55E-07  0.00E+00  0.00E+00  0.00E+00  0.00E+00  8.12E-10  1.55E-07  3.12E-04  0.99833
   1384.   7.225  7.31E-10  1.40E-07  0.00E+00  0.00E+00  0.00E+00  0.00E+00  7.31E-10  1.40E-07  3.12E-04  0.99846
   1386.   7.215  2.47E-09  4.74E-07  0.00E+00  0.00E+00  0.00E+00  0.00E+00  2.47E-09  4.74E-07  3.12E-04  0.99500
   1388.   7.205  8.52E-09  1.64E-06  0.00E+00  0.00E+00  0.00E+00  0.00E+00  8.52E-09  1.64E-06  3.12E-04  0.97784
   1390.   7.194  6.40E-10  1.24E-07  0.00E+00  0.00E+00  0.00E+00  0.00E+00  6.40E-10  1.24E-07  3.12E-04  0.99873
   1392.   7.184  5.25E-10  1.02E-07  0.00E+00  0.00E+00  0.00E+00  0.00E+00  5.25E-10  1.02E-07  3.12E-04  0.99897
   1394.   7.174  9.60E-09  1.87E-06  0.00E+00  0.00E+00  0.00E+00  0.00E+00  9.60E-09  1.87E-06  3.12E-04  0.97405
   1396.   7.163  4.57E-09  8.91E-07  0.00E+00  0.00E+00  0.00E+00  0.00E+00  4.57E-09  8.91E-07  3.12E-04  0.98807
   1398.   7.153  6.43E-09  1.26E-06  0.00E+00  0.00E+00  0.00E+00  0.00E+00  6.43E-09  1.26E-06  3.12E-04  0.98393
1                                             RADIANCE(WATTS/CM2-STER-XXX)
0  FREQ   WAVLEN    PATH THERMAL      SURFACE EMISSION    SURFACE REFLECTED     TOTAL RADIANCE   INTEGRAL    TOTAL
  (CM-1) (MICRN)    (CM-1)   (MICRN)    (CM-1)   (MICRN)    (CM-1)   (MICRN)    (CM-1)   (MICRN)    (CM-1)   TRANS

   1400.   7.143  3.75E-09  7.35E-07  0.00E+00  0.00E+00  0.00E+00  0.00E+00  3.75E-09  7.35E-07  3.13E-04  0.98947
   1402.   7.133  2.06E-10  4.05E-08  0.00E+00  0.00E+00  0.00E+00  0.00E+00  2.06E-10  4.05E-08  3.13E-04  0.99957
   1404.   7.123  2.74E-09  5.41E-07  0.00E+00  0.00E+00  0.00E+00  0.00E+00  2.74E-09  5.41E-07  3.13E-04  0.99250
   1406.   7.112  2.65E-09  5.23E-07  0.00E+00  0.00E+00  0.00E+00  0.00E+00  2.65E-09  5.23E-07  3.13E-04  0.99271
   1408.   7.102  1.94E-10  3.84E-08  0.00E+00  0.00E+00  0.00E+00  0.00E+00  1.94E-10  3.84E-08  3.13E-04  0.99956
   1410.   7.092  9.48E-10  1.88E-07  0.00E+00  0.00E+00  0.00E+00  0.00E+00  9.48E-10  1.88E-07  3.13E-04  0.99807
   1412.   7.082  2.10E-09  4.20E-07  0.00E+00  0.00E+00  0.00E+00  0.00E+00  2.10E-09  4.20E-07  3.13E-04  0.99550
   1414.   7.072  3.35E-10  6.71E-08  0.00E+00  0.00E+00  0.00E+00  0.00E+00  3.35E-10  6.71E-08  3.13E-04  0.99923
   1416.   7.062  3.71E-09  7.45E-07  0.00E+00  0.00E+00  0.00E+00  0.00E+00  3.71E-09  7.45E-07  3.13E-04  0.99080
   1418.   7.052  7.02E-09  1.41E-06  0.00E+00  0.00E+00  0.00E+00  0.00E+00  7.02E-09  1.41E-06  3.13E-04  0.97957
   1420.   7.042  1.35E-08  2.72E-06  0.00E+00  0.00E+00  0.00E+00  0.00E+00  1.35E-08  2.72E-06  3.13E-04  0.95765
   1422.   7.032  2.95E-10  5.96E-08  0.00E+00  0.00E+00  0.00E+00  0.00E+00  2.95E-10  5.96E-08  3.13E-04  0.99926
   1424.   7.022  6.93E-09  1.40E-06  0.00E+00  0.00E+00  0.00E+00  0.00E+00  6.93E-09  1.40E-06  3.13E-04  0.97995
   1426.   7.013  4.33E-10  8.81E-08  0.00E+00  0.00E+00  0.00E+00  0.00E+00  4.33E-10  8.81E-08  3.13E-04  0.99889
   1428.   7.003  7.44E-10  1.52E-07  0.00E+00  0.00E+00  0.00E+00  0.00E+00  7.44E-10  1.52E-07  3.13E-04  0.99836
   1430.   6.993  5.87E-09  1.20E-06  0.00E+00  0.00E+00  0.00E+00  0.00E+00  5.87E-09  1.20E-06  3.13E-04  0.98107
   1432.   6.983  1.61E-09  3.30E-07  0.00E+00  0.00E+00  0.00E+00  0.00E+00  1.61E-09  3.30E-07  3.13E-04  0.99618
   1434.   6.974  1.56E-09  3.21E-07  0.00E+00  0.00E+00  0.00E+00  0.00E+00  1.56E-09  3.21E-07  3.13E-04  0.99610
   1436.   6.964  1.17E-08  2.42E-06  0.00E+00  0.00E+00  0.00E+00  0.00E+00  1.17E-08  2.42E-06  3.13E-04  0.96111
   1438.   6.954  7.01E-09  1.45E-06  0.00E+00  0.00E+00  0.00E+00  0.00E+00  7.01E-09  1.45E-06  3.13E-04  0.97612
   1440.   6.944  3.50E-10  7.26E-08  0.00E+00  0.00E+00  0.00E+00  0.00E+00  3.50E-10  7.26E-08  3.13E-04  0.99900
   1442.   6.935  3.63E-10  7.56E-08  0.00E+00  0.00E+00  0.00E+00  0.00E+00  3.63E-10  7.56E-08  3.13E-04  0.99897
   1444.   6.925  2.79E-10  5.81E-08  0.00E+00  0.00E+00  0.00E+00  0.00E+00  2.79E-10  5.81E-08  3.13E-04  0.99924
   1446.   6.916  1.09E-09  2.29E-07  0.00E+00  0.00E+00  0.00E+00  0.00E+00  1.09E-09  2.29E-07  3.13E-04  0.99704
   1448.   6.906  5.90E-09  1.24E-06  0.00E+00  0.00E+00  0.00E+00  0.00E+00  5.90E-09  1.24E-06  3.13E-04  0.97962
   1450.   6.897  5.10E-10  1.07E-07  0.00E+00  0.00E+00  0.00E+00  0.00E+00  5.10E-10  1.07E-07  3.13E-04  0.99850
   1452.   6.887  2.91E-09  6.15E-07  0.00E+00  0.00E+00  0.00E+00  0.00E+00  2.91E-09  6.15E-07  3.13E-04  0.99152
   1454.   6.878  2.51E-09  5.30E-07  0.00E+00  0.00E+00  0.00E+00  0.00E+00  2.51E-09  5.30E-07  3.13E-04  0.99168
   1456.   6.868  1.25E-08  2.65E-06  0.00E+00  0.00E+00  0.00E+00  0.00E+00  1.25E-08  2.65E-06  3.13E-04  0.95350
   1458.   6.859  2.02E-08  4.30E-06  0.00E+00  0.00E+00  0.00E+00  0.00E+00  2.02E-08  4.30E-06  3.13E-04  0.92432
   1460.   6.849  2.81E-09  5.99E-07  0.00E+00  0.00E+00  0.00E+00  0.00E+00  2.81E-09  5.99E-07  3.13E-04  0.99012
   1462.   6.840  2.73E-10  5.83E-08  0.00E+00  0.00E+00  0.00E+00  0.00E+00  2.73E-10  5.83E-08  3.13E-04  0.99912
   1464.   6.831  5.23E-09  1.12E-06  0.00E+00  0.00E+00  0.00E+00  0.00E+00  5.23E-09  1.12E-06  3.13E-04  0.97960
   1466.   6.821  5.50E-09  1.18E-06  0.00E+00  0.00E+00  0.00E+00  0.00E+00  5.50E-09  1.18E-06  3.13E-04  0.97879
   1468.   6.812  4.70E-10  1.01E-07  0.00E+00  0.00E+00  0.00E+00  0.00E+00  4.70E-10  1.01E-07  3.13E-04  0.99859
   1470.   6.803  1.21E-09  2.61E-07  0.00E+00  0.00E+00  0.00E+00  0.00E+00  1.21E-09  2.61E-07  3.13E-04  0.99601
   1472.   6.793  1.03E-08  2.24E-06  0.00E+00  0.00E+00  0.00E+00  0.00E+00  1.03E-08  2.24E-06  3.13E-04  0.95882
   1474.   6.784  8.44E-09  1.83E-06  0.00E+00  0.00E+00  0.00E+00  0.00E+00  8.44E-09  1.83E-06  3.13E-04  0.96597
   1476.   6.775  7.43E-09  1.62E-06  0.00E+00  0.00E+00  0.00E+00  0.00E+00  7.43E-09  1.62E-06  3.13E-04  0.97105
   1478.   6.766  2.32E-10  5.08E-08  0.00E+00  0.00E+00  0.00E+00  0.00E+00  2.32E-10  5.08E-08  3.13E-04  0.99917
   1480.   6.757  1.52E-09  3.34E-07  0.00E+00  0.00E+00  0.00E+00  0.00E+00  1.52E-09  3.34E-07  3.13E-04  0.99446
   1482.   6.748  1.72E-09  3.78E-07  0.00E+00  0.00E+00  0.00E+00  0.00E+00  1.72E-09  3.78E-07  3.13E-04  0.99387
   1484.   6.739  4.67E-10  1.03E-07  0.00E+00  0.00E+00  0.00E+00  0.00E+00  4.67E-10  1.03E-07  3.13E-04  0.99836
   1486.   6.729  4.53E-09  1.00E-06  0.00E+00  0.00E+00  0.00E+00  0.00E+00  4.53E-09  1.00E-06  3.13E-04  0.98223
   1488.   6.720  5.24E-09  1.16E-06  0.00E+00  0.00E+00  0.00E+00  0.00E+00  5.24E-09  1.16E-06  3.13E-04  0.97923
   1490.   6.711  9.51E-09  2.11E-06  0.00E+00  0.00E+00  0.00E+00  0.00E+00  9.51E-09  2.11E-06  3.13E-04  0.96123
   1492.   6.702  3.37E-09  7.51E-07  0.00E+00  0.00E+00  0.00E+00  0.00E+00  3.37E-09  7.51E-07  3.13E-04  0.98564
   1494.   6.693  3.56E-10  7.96E-08  0.00E+00  0.00E+00  0.00E+00  0.00E+00  3.56E-10  7.96E-08  3.13E-04  0.99863
   1496.   6.684  9.45E-09  2.12E-06  0.00E+00  0.00E+00  0.00E+00  0.00E+00  9.45E-09  2.12E-06  3.13E-04  0.95715
   1498.   6.676  5.15E-09  1.16E-06  0.00E+00  0.00E+00  0.00E+00  0.00E+00  5.15E-09  1.16E-06  3.13E-04  0.97696
1                                             RADIANCE(WATTS/CM2-STER-XXX)
0  FREQ   WAVLEN    PATH THERMAL      SURFACE EMISSION    SURFACE REFLECTED     TOTAL RADIANCE   INTEGRAL    TOTAL
  (CM-1) (MICRN)    (CM-1)   (MICRN)    (CM-1)   (MICRN)    (CM-1)   (MICRN)    (CM-1)   (MICRN)    (CM-1)   TRANS

   1500.   6.667  5.56E-09  1.25E-06  0.00E+00  0.00E+00  0.00E+00  0.00E+00  5.56E-09  1.25E-06  3.13E-04  0.97584
0INTEGRATED ABSORPTION FROM  100 TO 1500 CM-1 =     94.82 CM-1
 AVERAGE TRANSMITTANCE =0.9323

0INTEGRATED RADIANCE =  3.129E-04 WATTS CM-2 STER-1
 MINIMUM RADIANCE    =  1.938E-10 WATTS CM-2 STER-1 (CM-1)-1 AT     1408.0 CM-1
 MAXIMUM RADIANCE    =  4.275E-06 WATTS CM-2 STER-1 (CM-1)-1 AT      668.0 CM-1
 BOUNDARY TEMPERATURE =       0.00 K
 BOUNDARY EMISSIVITY =       0.980
0 CARD 5 *****    0
