 *****  MODTRAN3 Version 1.3  12/1/95  *****
0 CARD 1  *****T   1    3    1    0    0    0    0    0    0    0    0    0   -1   0.000  -1.00
0 CARD 2  *****    2    0    0    0    0    0     0.000     0.000     0.000     0.000     0.000
0 CARD 3  *****     0.001     0.000     0.000     0.000     0.000     0.000    0
0 CARD 4  *****       100      1500         2         2
0 PROGRAM WILL COMPUTE RADIANCE                
0 ATMOSPHERIC MODEL
          TEMPERATURE =    1     TROPICAL MODEL      
          WATER VAPOR =    1     TROPICAL MODEL      
          OZONE       =    1     TROPICAL MODEL      
                      M4 =     1 M5 =     1 M6 =     1 MDEF =     1
0 AEROSOL MODEL
          REGIME                  AEROSOL TYPE             PROFILE                  SEASON

          BOUNDARY LAYER (0-2 KM) RURAL                      5.0 KM VIS AT SEA LEVEL
          TROPOSPHERE  (2-10KM)   TROPOSPHERIC             TROPOSPHERIC             SPRING-SUMMER       
          STRATOSPHERE (10-30KM)  BACKGROUND STRATO        BACKGROUND STRATO        SPRING-SUMMER       
          UPPER ATMOS (30-100KM)  METEORIC DUST            NORMAL              
0 SLANT PATH TO SPACE
          H1    =      0.001 KM
          HMIN  =      0.000 KM
          ANGLE =      0.000 DEG
0 FREQUENCY RANGE
             IV1 =       100 CM-1  (    100.00 MICROMETERS)
             IV2 =      1500 CM-1  (      6.67 MICROMETERS)
             IDV =         2 CM-1
           IFWHM =         2 CM-1
1
  ATMOSPHERIC PROFILES

   I     Z       P       T        N2       CNTMSLF MOL SCAT     N-1     O3 (UV)  O2 (UV)
        (KM)    (MB)    (K)            (MOL/CM2 KM)   (-)       (-)  (ATM CM/KM) (ATM CM/KM)

   1     0.00 1013.000  299.7  7.622E-01 1.623E+21 9.112E-01 2.609E-04 2.612E-03 3.342E+04
   2     1.00  904.000  293.7  6.321E-01 7.602E+20 8.298E-01 2.379E-04 2.612E-03 2.927E+04
   3     2.00  805.000  287.7  5.223E-01 3.892E+20 7.543E-01 2.164E-04 2.519E-03 2.562E+04
   4     3.00  715.000  283.7  4.238E-01 9.924E+19 6.794E-01 1.951E-04 2.379E-03 2.219E+04
   5     4.00  633.000  277.0  3.484E-01 2.176E+19 6.160E-01 1.770E-04 2.192E-03 1.945E+04
   6     5.00  559.000  270.3  2.853E-01 1.012E+19 5.575E-01 1.603E-04 2.099E-03 1.703E+04
   7     6.00  492.000  263.6  2.324E-01 3.249E+18 5.032E-01 1.447E-04 2.006E-03 1.490E+04
   8     7.00  432.000  257.0  1.885E-01 9.917E+17 4.531E-01 1.303E-04 1.912E-03 1.302E+04
   9     8.00  378.000  250.3  1.522E-01 2.810E+17 4.071E-01 1.171E-04 1.819E-03 1.138E+04
  10     9.00  329.000  243.6  1.217E-01 6.471E+16 3.641E-01 1.047E-04 1.819E-03 9.902E+03
  11    10.00  286.000  237.0  9.716E-02 1.125E+16 3.253E-01 9.355E-05 1.819E-03 8.629E+03
  12    11.00  247.000  230.1  7.688E-02 1.299E+15 2.894E-01 8.322E-05 1.912E-03 7.496E+03
  13    12.00  213.000  223.6  6.054E-02 1.618E+14 2.568E-01 7.385E-05 2.006E-03 6.507E+03
  14    13.00  182.000  217.0  4.693E-02 1.456E+13 2.261E-01 6.502E-05 2.099E-03 5.608E+03
  15    14.00  156.000  210.3  3.671E-02 4.497E+12 2.000E-01 5.751E-05 2.098E-03 4.870E+03
  16    15.00  132.000  203.7  2.802E-02 1.419E+12 1.747E-01 5.024E-05 2.193E-03 4.178E+03
  17    16.00  111.000  197.0  2.118E-02 6.036E+11 1.519E-01 4.368E-05 2.192E-03 3.572E+03
  18    17.00   93.700  194.8  1.544E-02 4.110E+11 1.297E-01 3.729E-05 3.240E-03 3.000E+03
  19    18.00   78.900  198.8  1.051E-02 2.516E+11 1.070E-01 3.077E-05 5.346E-03 2.433E+03
  20    19.00   66.600  202.7  7.202E-03 1.542E+11 8.857E-02 2.547E-05 8.409E-03 1.986E+03
  21    20.00   56.500  206.7  4.985E-03 1.067E+11 7.369E-02 2.119E-05 1.031E-02 1.633E+03
  22    21.00   48.000  210.7  3.463E-03 7.699E+10 6.141E-02 1.766E-05 1.105E-02 1.348E+03
  23    22.00   40.900  214.6  2.423E-03 6.016E+10 5.138E-02 1.478E-05 1.232E-02 1.119E+03
  24    23.00   35.000  217.0  1.736E-03 4.622E+10 4.348E-02 1.250E-05 1.477E-02 9.409E+02
  25    24.00   30.000  219.2  1.250E-03 4.052E+10 3.689E-02 1.061E-05 1.585E-02 7.942E+02
  26    25.00   25.700  221.4  8.990E-04 3.007E+10 3.129E-02 8.999E-06 1.689E-02 6.705E+02
  27    30.00   12.200  232.3  1.840E-04 9.323E+09 1.416E-02 4.072E-06 1.316E-02 2.992E+02
  28    35.00    6.000  243.1  4.064E-05 2.723E+09 6.654E-03 1.913E-06 6.450E-03 1.397E+02
  29    40.00    3.050  254.0  9.620E-06 8.236E+08 3.237E-03 9.309E-07 2.426E-03 6.779E+01
  30    45.00    1.590  264.8  2.405E-06 2.475E+08 1.619E-03 4.655E-07 7.279E-04 3.385E+01
  31    50.00    0.854  270.2  6.665E-07 7.597E+07 8.520E-04 2.450E-07 2.384E-04 1.781E+01
  32    70.00    0.058  218.9  4.684E-09 3.003E+05 7.143E-05 2.054E-08 2.141E-06 1.492E+00
  33   100.00    0.000  190.7  1.532E-13 7.763E-02 4.085E-07 1.175E-10 1.633E-08 6.532E-03
1
  ATMOSPHERIC PROFILES

   I     Z       P       T      CNTMFRN     HNO3    AEROSOL 1 AEROSOL 2 AEROSOL 3 AEROSOL 4 AER1*RH   CIRRUS         RH
        (KM)    (MB)    (K)   MOL/CM2 KM ATM CM/KM   (-)       (-)       (-)       (-)       (-)       (-)      (PERCNT)

   1     0.00 1013.000  299.7  6.101E+22 4.556E-06 7.700E-01 0.000E+00 0.000E+00 0.000E+00 2.462E+00 0.000E+00 7.553E+01
   2     1.00  904.000  293.7  3.828E+22 4.945E-06 7.700E-01 0.000E+00 0.000E+00 0.000E+00 2.544E+00 0.000E+00 7.277E+01
   3     2.00  805.000  287.7  2.500E+22 5.227E-06 6.210E-02 0.000E+00 0.000E+00 0.000E+00 2.011E-01 0.000E+00 7.451E+01
   4     3.00  715.000  283.7  1.145E+22 5.374E-06 0.000E+00 3.460E-02 0.000E+00 0.000E+00 0.000E+00 0.000E+00 4.825E+01
   5     4.00  633.000  277.0  4.881E+21 5.464E-06 0.000E+00 1.850E-02 0.000E+00 0.000E+00 0.000E+00 0.000E+00 3.491E+01
   6     5.00  559.000  270.3  3.015E+21 5.436E-06 0.000E+00 9.310E-03 0.000E+00 0.000E+00 0.000E+00 0.000E+00 3.771E+01
   7     6.00  492.000  263.6  1.544E+21 5.585E-06 0.000E+00 7.710E-03 0.000E+00 0.000E+00 0.000E+00 0.000E+00 3.479E+01
   8     7.00  432.000  257.0  7.690E+20 5.710E-06 0.000E+00 6.230E-03 0.000E+00 0.000E+00 0.000E+00 0.000E+00 3.198E+01
   9     8.00  378.000  250.3  3.680E+20 5.659E-06 0.000E+00 3.370E-03 0.000E+00 0.000E+00 0.000E+00 0.000E+00 2.947E+01
  10     9.00  329.000  243.6  1.580E+20 5.571E-06 0.000E+00 1.820E-03 0.000E+00 0.000E+00 0.000E+00 0.000E+00 2.535E+01
  11    10.00  286.000  237.0  5.886E+19 5.660E-06 0.000E+00 1.140E-03 0.000E+00 0.000E+00 0.000E+00 0.000E+00 1.951E+01
  12    11.00  247.000  230.1  1.780E+19 5.845E-06 0.000E+00 0.000E+00 7.990E-04 0.000E+00 0.000E+00 0.000E+00 1.315E+01
  13    12.00  213.000  223.6  5.573E+18 6.189E-06 0.000E+00 0.000E+00 6.410E-04 0.000E+00 0.000E+00 0.000E+00 9.253E+00
  14    13.00  182.000  217.0  1.472E+18 6.240E-06 0.000E+00 0.000E+00 5.170E-04 0.000E+00 0.000E+00 0.000E+00 5.881E+00
  15    14.00  156.000  210.3  7.236E+17 6.659E-06 0.000E+00 0.000E+00 4.420E-04 0.000E+00 0.000E+00 0.000E+00 7.410E+00
  16    15.00  132.000  203.7  3.551E+17 7.896E-06 0.000E+00 0.000E+00 3.950E-04 0.000E+00 0.000E+00 0.000E+00 9.923E+00
  17    16.00  111.000  197.0  2.014E+17 1.119E-05 0.000E+00 0.000E+00 3.820E-04 0.000E+00 0.000E+00 0.000E+00 1.677E+01
  18    17.00   93.700  194.8  1.419E+17 1.699E-05 0.000E+00 0.000E+00 4.250E-04 0.000E+00 0.000E+00 0.000E+00 1.924E+01
  19    18.00   78.900  198.8  9.158E+16 2.257E-05 0.000E+00 0.000E+00 5.200E-04 0.000E+00 0.000E+00 0.000E+00 8.321E+00
  20    19.00   66.600  202.7  5.934E+16 2.808E-05 0.000E+00 0.000E+00 5.810E-04 0.000E+00 0.000E+00 0.000E+00 3.752E+00
  21    20.00   56.500  206.7  4.107E+16 3.095E-05 0.000E+00 0.000E+00 5.890E-04 0.000E+00 0.000E+00 0.000E+00 1.818E+00
  22    21.00   48.000  210.7  2.908E+16 3.034E-05 0.000E+00 0.000E+00 5.020E-04 0.000E+00 0.000E+00 0.000E+00 9.217E-01
  23    22.00   40.900  214.6  2.150E+16 2.805E-05 0.000E+00 0.000E+00 4.200E-04 0.000E+00 0.000E+00 0.000E+00 5.033E-01
  24    23.00   35.000  217.0  1.595E+16 2.496E-05 0.000E+00 0.000E+00 3.000E-04 0.000E+00 0.000E+00 0.000E+00 3.313E-01
  25    24.00   30.000  219.2  1.267E+16 2.155E-05 0.000E+00 0.000E+00 1.980E-04 0.000E+00 0.000E+00 0.000E+00 2.401E-01
  26    25.00   25.700  221.4  9.258E+15 1.756E-05 0.000E+00 0.000E+00 1.310E-04 0.000E+00 0.000E+00 0.000E+00 1.611E-01
  27    30.00   12.200  232.3  2.333E+15 5.295E-06 0.000E+00 0.000E+00 3.320E-05 0.000E+00 0.000E+00 0.000E+00 2.817E-02
  28    35.00    6.000  243.1  5.924E+14 1.091E-06 0.000E+00 0.000E+00 0.000E+00 1.640E-05 0.000E+00 0.000E+00 5.440E-03
  29    40.00    3.050  254.0  1.585E+14 1.725E-07 0.000E+00 0.000E+00 0.000E+00 7.990E-06 0.000E+00 0.000E+00 1.173E-03
  30    45.00    1.590  264.8  4.345E+13 1.959E-08 0.000E+00 0.000E+00 0.000E+00 4.010E-06 0.000E+00 0.000E+00 2.777E-04
  31    50.00    0.854  270.2  1.267E+13 4.729E-09 0.000E+00 0.000E+00 0.000E+00 2.100E-06 0.000E+00 0.000E+00 1.041E-04
  32    70.00    0.058  218.9  6.679E+10 2.336E-10 0.000E+00 0.000E+00 0.000E+00 1.600E-07 0.000E+00 0.000E+00 6.767E-04
  33   100.00    0.000  190.7  1.942E+05 1.115E-12 0.000E+00 0.000E+00 0.000E+00 9.310E-10 0.000E+00 0.000E+00 1.583E-05
1
  ATMOSPHERIC PROFILES

   I      Z       P       T      H2O      O3       CO2      CO       CH4      N2O      O2       NH3      NO       NO2      SO2
         (KM)    (MB)    (K)  (                                 ATM CM/KM                                                     )
   1     0.00 1013.000  299.7  2.36E+03 2.61E-03 3.41E+01 1.37E-02 1.55E-01 2.91E-02 1.90E+04 4.55E-05 2.73E-05 2.09E-06 2.73E-05
   2     1.00  904.000  293.7  1.62E+03 2.61E-03 3.11E+01 1.20E-02 1.41E-01 2.65E-02 1.73E+04 4.15E-05 2.49E-05 1.91E-06 2.27E-05
   3     2.00  805.000  287.7  1.16E+03 2.52E-03 2.83E+01 1.05E-02 1.28E-01 2.41E-02 1.58E+04 3.49E-05 2.26E-05 1.73E-06 1.78E-05
   4     3.00  715.000  283.7  5.84E+02 2.38E-03 2.55E+01 9.16E-03 1.15E-01 2.17E-02 1.42E+04 2.58E-05 2.04E-05 1.56E-06 1.29E-05
   5     4.00  633.000  277.0  2.73E+02 2.19E-03 2.31E+01 8.08E-03 1.05E-01 1.97E-02 1.29E+04 1.77E-05 1.85E-05 1.42E-06 8.99E-06
   6     5.00  559.000  270.3  1.86E+02 2.10E-03 2.09E+01 7.26E-03 9.47E-02 1.78E-02 1.16E+04 1.14E-05 1.67E-05 1.28E-06 6.57E-06
   7     6.00  492.000  263.6  1.06E+02 2.01E-03 1.89E+01 6.48E-03 8.55E-02 1.61E-02 1.05E+04 7.34E-06 1.51E-05 1.16E-06 4.88E-06
   8     7.00  432.000  257.0  5.84E+01 1.91E-03 1.70E+01 5.65E-03 7.69E-02 1.45E-02 9.46E+03 4.47E-06 1.36E-05 1.04E-06 3.76E-06
   9     8.00  378.000  250.3  3.11E+01 1.82E-03 1.53E+01 4.82E-03 6.90E-02 1.30E-02 8.50E+03 2.64E-06 1.22E-05 9.36E-07 2.93E-06
  10     9.00  329.000  243.6  1.49E+01 1.82E-03 1.36E+01 3.98E-03 6.16E-02 1.16E-02 7.60E+03 1.37E-06 1.09E-05 8.44E-07 2.39E-06
  11    10.00  286.000  237.0  6.22E+00 1.82E-03 1.22E+01 3.24E-03 5.48E-02 1.03E-02 6.79E+03 6.60E-07 9.75E-06 7.74E-07 1.98E-06
  12    11.00  247.000  230.1  2.11E+00 1.91E-03 1.08E+01 2.59E-03 4.84E-02 9.08E-03 6.04E+03 3.15E-07 8.68E-06 7.58E-07 1.67E-06
  13    12.00  213.000  223.6  7.45E-01 2.01E-03 9.62E+00 2.01E-03 4.27E-02 7.94E-03 5.36E+03 1.62E-07 7.70E-06 8.08E-07 1.44E-06
  14    13.00  182.000  217.0  2.24E-01 2.10E-03 8.47E+00 1.44E-03 3.72E-02 6.89E-03 4.72E+03 7.05E-08 6.76E-06 1.01E-06 1.26E-06
  15    14.00  156.000  210.3  1.24E-01 2.10E-03 7.49E+00 1.00E-03 3.25E-02 5.99E-03 4.18E+03 2.22E-08 5.90E-06 1.49E-06 1.13E-06
  16    15.00  132.000  203.7  6.98E-02 2.19E-03 6.55E+00 6.88E-04 2.80E-02 5.14E-03 3.65E+03 7.80E-09 4.94E-06 2.99E-06 1.00E-06
  17    16.00  111.000  197.0  4.55E-02 2.19E-03 5.69E+00 4.66E-04 2.40E-02 4.37E-03 3.17E+03 3.20E-09 4.07E-06 4.84E-06 8.73E-07
  18    17.00   93.700  194.8  3.76E-02 3.24E-03 4.86E+00 3.23E-04 2.01E-02 3.61E-03 2.71E+03 1.43E-09 3.27E-06 6.73E-06 6.96E-07
  19    18.00   78.900  198.8  2.94E-02 5.35E-03 4.01E+00 2.10E-04 1.63E-02 2.86E-03 2.23E+03 7.16E-10 2.57E-06 8.24E-06 5.11E-07
  20    19.00   66.600  202.7  2.30E-02 8.41E-03 3.32E+00 1.37E-04 1.31E-02 2.24E-03 1.85E+03 3.51E-10 2.16E-06 9.38E-06 3.51E-07
  21    20.00   56.500  206.7  1.91E-02 1.03E-02 2.76E+00 9.80E-05 1.05E-02 1.74E-03 1.54E+03 1.77E-10 1.88E-06 1.02E-05 2.35E-07
  22    21.00   48.000  210.7  1.63E-02 1.10E-02 2.30E+00 7.56E-05 8.32E-03 1.35E-03 1.28E+03 1.18E-10 1.70E-06 1.08E-05 1.64E-07
  23    22.00   40.900  214.6  1.44E-02 1.23E-02 1.93E+00 6.33E-05 6.53E-03 1.05E-03 1.07E+03 8.83E-11 1.58E-06 1.11E-05 1.17E-07
  24    23.00   35.000  217.0  1.26E-02 1.48E-02 1.63E+00 5.68E-05 5.18E-03 8.55E-04 9.08E+02 6.91E-11 1.56E-06 1.12E-05 8.99E-08
  25    24.00   30.000  219.2  1.18E-02 1.59E-02 1.38E+00 5.16E-05 4.12E-03 6.91E-04 7.71E+02 5.31E-11 1.66E-06 1.13E-05 7.01E-08
  26    25.00   25.700  221.4  1.02E-02 1.69E-02 1.17E+00 4.76E-05 3.30E-03 5.49E-04 6.54E+02 3.85E-11 2.14E-06 1.17E-05 5.47E-08
  27    30.00   12.200  232.3  5.66E-03 1.32E-02 5.31E-01 2.82E-05 1.29E-03 2.00E-04 2.96E+02 8.98E-12 3.47E-06 8.72E-06 1.90E-08
  28    35.00    6.000  243.1  3.06E-03 6.45E-03 2.49E-01 1.65E-05 4.96E-04 6.17E-05 1.39E+02 1.21E-12 4.75E-06 4.84E-06 7.71E-09
  29    40.00    3.050  254.0  1.68E-03 2.43E-03 1.21E-01 1.00E-05 1.82E-04 1.46E-05 6.76E+01 9.51E-14 3.62E-06 1.30E-06 4.40E-09
  30    45.00    1.590  264.8  9.22E-04 7.28E-04 6.07E-02 6.45E-06 5.87E-05 2.57E-06 3.38E+01 4.82E-15 1.89E-06 1.86E-07 3.40E-09
  31    50.00    0.854  270.2  5.11E-04 2.38E-04 3.19E-02 4.34E-06 1.79E-05 4.05E-07 1.78E+01 6.07E-16 8.77E-07 3.77E-08 3.03E-09
  32    70.00    0.058  218.9  3.21E-05 2.14E-06 2.68E-03 1.38E-06 1.07E-06 8.20E-09 1.49E+00 1.83E-17 8.21E-08 1.65E-09 3.08E-10
  33   100.00    0.000  190.7  1.63E-08 1.63E-08 9.05E-06 6.96E-07 4.90E-09 1.36E-11 6.53E-03 6.04E-20 8.49E-08 6.94E-12 1.46E-14
1
  ATMOSPHERIC PROFILES

   I      Z       P       T     CFC-11   CFC-12   CFC-13   CFC-14   CFC-22   CFC-113  CFC-114  CFC-115  CLONO2    HNO4    CHCL2F 
                                 CCL4     N2O5  
         (KM)    (MB)    (K)  (                                 ATM CM/KM                                                     )
   1     0.00 1013.000  299.7  1.27E-05 2.19E-05 9.11E-14 9.11E-14 5.46E-06 1.73E-06 1.09E-06 9.11E-14 5.24E-07 3.95E-08 9.11E-14
                               1.18E-05 2.20E-11
   2     1.00  904.000  293.7  1.16E-05 1.99E-05 8.29E-14 8.29E-14 4.97E-06 1.58E-06 9.95E-07 8.29E-14 4.25E-07 1.77E-07 8.29E-14
                               1.08E-05 7.91E-11
   3     2.00  805.000  287.7  1.06E-05 1.81E-05 7.54E-14 7.54E-14 4.52E-06 1.43E-06 9.05E-07 7.54E-14 3.40E-07 2.89E-07 7.54E-14
                               9.80E-06 1.26E-10
   4     3.00  715.000  283.7  9.51E-06 1.63E-05 6.79E-14 6.79E-14 4.06E-06 1.29E-06 8.15E-07 6.79E-14 2.64E-07 3.76E-07 6.79E-14
                               8.83E-06 1.61E-10
   5     4.00  633.000  277.0  8.62E-06 1.48E-05 6.16E-14 6.16E-14 3.68E-06 1.17E-06 7.39E-07 6.16E-14 2.01E-07 4.46E-07 6.16E-14
                               8.00E-06 1.90E-10
   6     5.00  559.000  270.3  7.80E-06 1.34E-05 5.57E-14 5.57E-14 3.33E-06 1.06E-06 6.69E-07 5.57E-14 1.53E-07 1.01E-06 5.57E-14
                               7.23E-06 2.01E-10
   7     6.00  492.000  263.6  7.04E-06 1.21E-05 5.03E-14 5.03E-14 3.00E-06 9.55E-07 6.03E-07 5.03E-14 1.13E-07 1.46E-06 5.03E-14
                               6.51E-06 2.07E-10
   8     7.00  432.000  257.0  6.34E-06 1.09E-05 4.53E-14 4.53E-14 2.70E-06 8.60E-07 5.43E-07 4.53E-14 7.90E-08 1.81E-06 4.53E-14
                               5.86E-06 2.10E-10
   9     8.00  378.000  250.3  5.70E-06 9.76E-06 4.07E-14 4.07E-14 2.43E-06 7.73E-07 4.88E-07 4.07E-14 5.04E-08 2.07E-06 4.07E-14
                               5.25E-06 2.10E-10
  10     9.00  329.000  243.6  5.09E-06 8.72E-06 3.64E-14 3.64E-14 2.17E-06 6.91E-07 4.37E-07 3.64E-14 4.40E-08 1.79E-06 3.64E-14
                               4.69E-06 2.10E-10
  11    10.00  286.000  237.0  4.54E-06 7.79E-06 3.25E-14 3.25E-14 1.94E-06 6.16E-07 3.90E-07 3.25E-14 3.82E-08 1.54E-06 3.25E-14
                               4.19E-06 2.07E-10
  12    11.00  247.000  230.1  4.03E-06 6.92E-06 2.89E-14 2.89E-14 1.72E-06 5.47E-07 3.47E-07 2.89E-14 3.31E-08 1.32E-06 2.89E-14
                               3.73E-06 2.02E-10
  13    12.00  213.000  223.6  3.57E-06 6.13E-06 2.57E-14 2.57E-14 1.53E-06 4.85E-07 3.08E-07 2.57E-14 2.85E-08 1.12E-06 2.57E-14
                               3.31E-06 1.94E-10
  14    13.00  182.000  217.0  3.05E-06 5.32E-06 2.26E-14 2.26E-14 1.33E-06 4.19E-07 2.68E-07 2.26E-14 1.81E-07 1.28E-06 2.26E-14
                               2.82E-06 9.96E-09
  15    14.00  156.000  210.3  2.62E-06 4.64E-06 2.00E-14 2.00E-14 1.17E-06 3.64E-07 2.35E-07 2.00E-14 2.98E-07 1.39E-06 2.00E-14
                               2.42E-06 1.75E-08
  16    15.00  132.000  203.7  2.22E-06 3.99E-06 1.75E-14 1.75E-14 1.01E-06 3.12E-07 2.03E-07 1.75E-14 3.81E-07 1.44E-06 1.75E-14
                               2.04E-06 2.28E-08
  17    16.00  111.000  197.0  1.87E-06 3.42E-06 1.52E-14 1.52E-14 8.68E-07 2.66E-07 1.75E-07 1.52E-14 4.36E-07 1.44E-06 1.52E-14
                               1.72E-06 2.64E-08
  18    17.00   93.700  194.8  1.46E-06 2.78E-06 1.30E-14 1.30E-14 7.21E-07 2.14E-07 1.45E-07 1.30E-14 1.32E-06 1.85E-06 1.30E-14
                               1.32E-06 1.14E-07
  19    18.00   78.900  198.8  1.09E-06 2.19E-06 1.07E-14 1.07E-14 5.78E-07 1.66E-07 1.16E-07 1.07E-14 1.86E-06 2.03E-06 1.07E-14
                               9.69E-07 1.69E-07
  20    19.00   66.600  202.7  8.05E-07 1.72E-06 8.85E-15 8.85E-15 4.65E-07 1.29E-07 9.32E-08 8.85E-15 2.19E-06 2.10E-06 8.85E-15
                               7.03E-07 2.02E-07
  21    20.00   56.500  206.7  5.91E-07 1.35E-06 7.36E-15 7.36E-15 3.75E-07 1.00E-07 7.51E-08 7.36E-15 2.36E-06 2.10E-06 7.36E-15
                               5.02E-07 2.20E-07
  22    21.00   48.000  210.7  4.21E-07 1.05E-06 6.14E-15 6.14E-15 3.00E-07 7.60E-08 5.99E-08 6.14E-15 2.82E-06 2.16E-06 6.14E-15
                               3.51E-07 2.54E-07
  23    22.00   40.900  214.6  2.93E-07 8.11E-07 5.13E-15 5.13E-15 2.41E-07 5.73E-08 4.78E-08 5.13E-15 3.08E-06 2.15E-06 5.13E-15
                               2.37E-07 2.72E-07
  24    23.00   35.000  217.0  1.98E-07 6.30E-07 4.35E-15 4.35E-15 1.95E-07 4.32E-08 3.85E-08 4.35E-15 3.22E-06 2.11E-06 4.35E-15
                               1.52E-07 2.80E-07
  25    24.00   30.000  219.2  1.25E-07 4.87E-07 3.69E-15 3.69E-15 1.59E-07 3.21E-08 3.10E-08 3.69E-15 3.24E-06 2.04E-06 3.69E-15
                               8.85E-08 2.81E-07
  26    25.00   25.700  221.4  8.53E-08 3.72E-07 3.13E-15 3.13E-15 1.28E-07 2.38E-08 2.49E-08 3.13E-15 3.04E-06 1.82E-06 3.13E-15
                               5.89E-08 2.41E-07
  27    30.00   12.200  232.3  5.52E-09 8.33E-08 1.41E-15 1.41E-15 4.28E-08 4.12E-09 7.97E-09 1.41E-15 1.61E-06 7.22E-07 1.41E-15
                               2.48E-09 7.81E-08
  28    35.00    6.000  243.1  1.32E-10 1.42E-08 6.65E-16 6.65E-16 1.38E-08 4.77E-10 2.43E-09 6.65E-16 3.48E-07 9.77E-08 6.65E-16
                               2.63E-11 7.19E-09
  29    40.00    3.050  254.0  5.98E-13 1.97E-09 3.23E-16 3.23E-16 4.50E-09 3.98E-11 7.50E-10 3.23E-16 1.38E-08 3.22E-09 3.23E-16
                               1.28E-14 6.89E-11
  30    45.00    1.590  264.8  1.49E-14 3.45E-10 1.62E-16 1.62E-16 1.68E-09 5.20E-12 2.62E-10 1.62E-16 2.72E-10 1.41E-10 1.62E-16
                               9.01E-17 6.37E-13
  31    50.00    0.854  270.2  5.08E-16 7.25E-11 8.51E-17 8.51E-17 7.48E-10 8.43E-13 1.06E-10 8.51E-17 3.97E-12 6.50E-12 8.51E-17
                               9.31E-19 5.35E-15
  32    70.00    0.058  218.9  3.63E-21 2.79E-13 7.14E-18 7.14E-18 5.13E-11 1.25E-15 4.18E-12 7.14E-18 5.16E-19 2.29E-16 7.14E-18
                               7.05E-26 5.85E-23
  33   100.00    0.000  190.7  1.27E-30 1.01E-18 4.08E-20 4.08E-20 7.31E-14 5.35E-22 8.70E-16 4.08E-20 3.30E-35 1.36E-31 4.08E-20
                               2.08E-38 0.00E+00


 CASE 3A: GIVEN H1,H2=SPACE,ANGLE



 SLANT PATH PARAMETERS IN STANDARD FORM

          H1      =      0.001 KM
          H2      =    100.000 KM
          ANGLE   =      0.000 DEG
          PHI     =    180.000 DEG
          HMIN    =      0.001 KM
          LEN     =          0
1CALCULATION OF THE REFRACTED PATH THROUGH THE ATMOSPHERE


  I       ALTITUDE        THETA  DRANGE    RANGE    DBETA     BETA     PHI     DBEND  BENDING    PBAR    TBAR   RHOBAR
      FROM       TO
      (KM)      (KM)      (DEG)    (KM)     (KM)    (DEG)    (DEG)    (DEG)    (DEG)    (DEG)    (MB)    (K)  (GM CM-3)

          H1 TO H2

  1    0.001    1.000    0.000    0.999    0.999    0.000    0.000  180.000    0.000    0.000  958.259  296.73 1.12E-03
  2    1.000    2.000    0.000    1.000    1.999    0.000    0.000  180.000    0.000    0.000  854.330  290.74 1.02E-03
  3    2.000    3.000    0.000    1.000    2.999    0.000    0.000  180.000    0.000    0.000  759.895  285.73 9.26E-04
  4    3.000    4.000    0.000    1.000    3.999    0.000    0.000  180.000    0.000    0.000  673.837  280.39 8.36E-04
  5    4.000    5.000    0.000    1.000    4.999    0.000    0.000  180.000    0.000    0.000  595.849  273.69 7.58E-04
  6    5.000    6.000    0.000    1.000    5.999    0.000    0.000  180.000    0.000    0.000  525.360  266.99 6.85E-04
  7    6.000    7.000    0.000    1.000    6.999    0.000    0.000  180.000    0.000    0.000  461.873  260.34 6.17E-04
  8    7.000    8.000    0.000    1.000    7.999    0.000    0.000  180.000    0.000    0.000  404.881  253.70 5.55E-04
  9    8.000    9.000    0.000    1.000    8.999    0.000    0.000  180.000    0.000    0.000  353.389  247.00 4.98E-04
 10    9.000   10.000    0.000    1.000    9.999    0.000    0.000  180.000    0.000    0.000  307.402  240.35 4.45E-04
 11   10.000   11.000    0.000    1.000   10.999    0.000    0.000  180.000    0.000    0.000  266.404  233.60 3.97E-04
 12   11.000   12.000    0.000    1.000   11.999    0.000    0.000  180.000    0.000    0.000  229.919  226.90 3.52E-04
 13   12.000   13.000    0.000    1.000   12.999    0.000    0.000  180.000    0.000    0.000  197.423  220.35 3.12E-04
 14   13.000   14.000    0.000    1.000   13.999    0.000    0.000  180.000    0.000    0.000  168.932  213.70 2.75E-04
 15   14.000   15.000    0.000    1.000   14.999    0.000    0.000  180.000    0.000    0.000  143.936  207.06 2.42E-04
 16   15.000   16.000    0.000    1.000   15.999    0.000    0.000  180.000    0.000    0.000  121.442  200.41 2.11E-04
 17   16.000   17.000    0.000    1.000   16.999    0.000    0.000  180.000    0.000    0.000  102.334  195.93 1.82E-04
 18   17.000   18.000    0.000    1.000   17.999    0.000    0.000  180.000    0.000    0.000   86.325  196.73 1.52E-04
 19   18.000   19.000    0.000    1.000   18.999    0.000    0.000  180.000    0.000    0.000   72.770  200.68 1.26E-04
 20   19.000   20.000    0.000    1.000   19.999    0.000    0.000  180.000    0.000    0.000   61.566  204.63 1.05E-04
 21   20.000   21.000    0.000    1.000   20.999    0.000    0.000  180.000    0.000    0.000   52.264  208.63 8.71E-05
 22   21.000   22.000    0.000    1.000   21.999    0.000    0.000  180.000    0.000    0.000   44.461  212.59 7.27E-05
 23   22.000   23.000    0.000    1.000   22.999    0.000    0.000  180.000    0.000    0.000   37.955  215.76 6.11E-05
 24   23.000   24.000    0.000    1.000   23.999    0.000    0.000  180.000    0.000    0.000   32.504  218.07 5.18E-05
 25   24.000   25.000    0.000    1.000   24.999    0.000    0.000  180.000    0.000    0.000   27.854  220.27 4.40E-05
 26   25.000   30.000    0.000    5.000   29.999    0.000    0.000  180.000    0.000    0.000   19.003  226.09 2.79E-05
 27   30.000   35.000    0.000    5.000   34.999    0.000    0.000  180.000    0.000    0.000    9.123  236.99 1.28E-05
 28   35.000   40.000    0.000    5.000   39.999    0.000    0.000  180.000    0.000    0.000    4.536  247.86 6.13E-06
 29   40.000   45.000    0.000    5.000   44.999    0.000    0.000  180.000    0.000    0.000    2.325  258.74 3.02E-06
 30   45.000   50.000    0.000    5.000   49.999    0.000    0.000  180.000    0.000    0.000    1.223  267.20 1.54E-06
 31   50.000   70.000    0.000   20.000   69.999    0.000    0.000  180.000    0.000    0.000    0.445  253.37 4.07E-07
 32   70.000  100.000    0.000   30.000   99.999    0.000    0.000  180.000    0.000    0.000    0.029  213.36 1.78E-08




1CUMULATIVE ABSORBER AMOUNTS FOR THE PATH FROM H1 TO Z

  J     Z        TBAR     HNO3        O3 UV      CNTMSLF1   CNTMSLF2    CNTMFRN      O2
       (KM)       (K)   (ATM CM)    (ATM CM)    (MOL CM-2)  (MOL CM-2)  (MOL CM-2)(MOL CM-2)

  1    1.000   296.73   4.746E-06   2.610E-03   1.136E+21  -2.315E+19   4.870E+22   3.127E+04
  2    2.000   290.74   9.832E-06   5.175E-03   1.690E+21   5.786E+19   7.987E+22   5.867E+04
  3    3.000   285.73   1.513E-05   7.623E-03   1.902E+21   1.184E+20   9.722E+22   8.253E+04
  4    4.000   280.39   2.055E-05   9.908E-03   1.953E+21   1.405E+20   1.049E+23   1.033E+05
  5    5.000   273.69   2.600E-05   1.205E-02   1.968E+21   1.499E+20   1.088E+23   1.215E+05
  6    6.000   266.99   3.151E-05   1.410E-02   1.975E+21   1.548E+20   1.110E+23   1.375E+05
  7    7.000   260.34   3.716E-05   1.606E-02   1.976E+21   1.567E+20   1.121E+23   1.514E+05
  8    8.000   253.70   4.284E-05   1.793E-02   1.977E+21   1.574E+20   1.127E+23   1.636E+05
  9    9.000   247.00   4.846E-05   1.975E-02   1.977E+21   1.576E+20   1.129E+23   1.742E+05
 10   10.000   240.35   5.407E-05   2.157E-02   1.977E+21   1.576E+20   1.130E+23   1.835E+05
 11   11.000   233.60   5.983E-05   2.343E-02   1.977E+21   1.576E+20   1.130E+23   1.915E+05
 12   12.000   226.90   6.584E-05   2.539E-02   1.977E+21   1.576E+20   1.131E+23   1.985E+05
 13   13.000   220.35   7.206E-05   2.744E-02   1.977E+21   1.576E+20   1.131E+23   2.046E+05
 14   14.000   213.70   7.851E-05   2.954E-02   1.977E+21   1.576E+20   1.131E+23   2.098E+05
 15   15.000   207.06   8.579E-05   3.169E-02   1.977E+21   1.576E+20   1.131E+23   2.143E+05
 16   16.000   200.41   9.533E-05   3.388E-02   1.977E+21   1.576E+20   1.131E+23   2.182E+05
 17   17.000   195.93   1.094E-04   3.660E-02   1.977E+21   1.576E+20   1.131E+23   2.214E+05
 18   18.000   196.73   1.292E-04   4.089E-02   1.977E+21   1.576E+20   1.131E+23   2.241E+05
 19   19.000   200.68   1.545E-04   4.777E-02   1.977E+21   1.576E+20   1.131E+23   2.263E+05
 20   20.000   204.63   1.840E-04   5.712E-02   1.977E+21   1.576E+20   1.131E+23   2.282E+05
 21   21.000   208.63   2.147E-04   6.780E-02   1.977E+21   1.576E+20   1.131E+23   2.296E+05
 22   22.000   212.59   2.439E-04   7.949E-02   1.977E+21   1.576E+20   1.131E+23   2.309E+05
 23   23.000   215.76   2.703E-04   9.304E-02   1.977E+21   1.576E+20   1.131E+23   2.319E+05
 24   24.000   218.07   2.936E-04   1.083E-01   1.977E+21   1.576E+20   1.131E+23   2.328E+05
 25   25.000   220.27   3.130E-04   1.247E-01   1.977E+21   1.576E+20   1.131E+23   2.335E+05
 26   30.000   226.09   3.642E-04   1.994E-01   1.977E+21   1.576E+20   1.131E+23   2.358E+05
 27   35.000   236.99   3.775E-04   2.465E-01   1.977E+21   1.576E+20   1.131E+23   2.368E+05
 28   40.000   247.86   3.800E-04   2.671E-01   1.977E+21   1.576E+20   1.131E+23   2.373E+05
 29   45.000   258.74   3.803E-04   2.741E-01   1.977E+21   1.576E+20   1.131E+23   2.376E+05
 30   50.000   267.20   3.804E-04   2.763E-01   1.977E+21   1.576E+20   1.131E+23   2.377E+05
 31   70.000   253.37   3.804E-04   2.773E-01   1.977E+21   1.576E+20   1.131E+23   2.378E+05
 32  100.000   213.36   3.804E-04   2.773E-01   1.977E+21   1.576E+20   1.131E+23   2.378E+05



1 J     Z       N2 CONT    MOL SCAT       AER 1       AER 2       AER 3       AER 4       CIRRUS
       (KM)

  1    1.000   6.944E-01   8.689E-01   7.692E-01   0.000E+00   0.000E+00   0.000E+00   0.000E+00
  2    2.000   1.270E+00   1.660E+00   1.050E+00   0.000E+00   0.000E+00   0.000E+00   0.000E+00
  3    3.000   1.741E+00   2.377E+00   1.081E+00   1.730E-02   0.000E+00   0.000E+00   0.000E+00
  4    4.000   2.126E+00   3.024E+00   1.081E+00   4.302E-02   0.000E+00   0.000E+00   0.000E+00
  5    5.000   2.442E+00   3.610E+00   1.081E+00   5.640E-02   0.000E+00   0.000E+00   0.000E+00
  6    6.000   2.700E+00   4.140E+00   1.081E+00   6.488E-02   0.000E+00   0.000E+00   0.000E+00
  7    7.000   2.910E+00   4.618E+00   1.081E+00   7.183E-02   0.000E+00   0.000E+00   0.000E+00
  8    8.000   3.079E+00   5.047E+00   1.081E+00   7.648E-02   0.000E+00   0.000E+00   0.000E+00
  9    9.000   3.216E+00   5.433E+00   1.081E+00   7.900E-02   0.000E+00   0.000E+00   0.000E+00
 10   10.000   3.325E+00   5.777E+00   1.081E+00   8.045E-02   0.000E+00   0.000E+00   0.000E+00
 11   11.000   3.411E+00   6.084E+00   1.081E+00   8.102E-02   3.995E-04   0.000E+00   0.000E+00
 12   12.000   3.480E+00   6.357E+00   1.081E+00   8.102E-02   1.117E-03   0.000E+00   0.000E+00
 13   13.000   3.533E+00   6.598E+00   1.081E+00   8.102E-02   1.693E-03   0.000E+00   0.000E+00
 14   14.000   3.575E+00   6.811E+00   1.081E+00   8.102E-02   2.172E-03   0.000E+00   0.000E+00
 15   15.000   3.607E+00   6.998E+00   1.081E+00   8.102E-02   2.590E-03   0.000E+00   0.000E+00
 16   16.000   3.631E+00   7.161E+00   1.081E+00   8.102E-02   2.978E-03   0.000E+00   0.000E+00
 17   17.000   3.649E+00   7.301E+00   1.081E+00   8.102E-02   3.382E-03   0.000E+00   0.000E+00
 18   18.000   3.662E+00   7.419E+00   1.081E+00   8.102E-02   3.854E-03   0.000E+00   0.000E+00
 19   19.000   3.671E+00   7.517E+00   1.081E+00   8.102E-02   4.405E-03   0.000E+00   0.000E+00
 20   20.000   3.677E+00   7.597E+00   1.081E+00   8.102E-02   4.990E-03   0.000E+00   0.000E+00
 21   21.000   3.681E+00   7.665E+00   1.081E+00   8.102E-02   5.534E-03   0.000E+00   0.000E+00
 22   22.000   3.684E+00   7.721E+00   1.081E+00   8.102E-02   5.994E-03   0.000E+00   0.000E+00
 23   23.000   3.686E+00   7.768E+00   1.081E+00   8.102E-02   6.351E-03   0.000E+00   0.000E+00
 24   24.000   3.688E+00   7.808E+00   1.081E+00   8.102E-02   6.596E-03   0.000E+00   0.000E+00
 25   25.000   3.689E+00   7.842E+00   1.081E+00   8.102E-02   6.758E-03   0.000E+00   0.000E+00
 26   30.000   3.691E+00   7.951E+00   1.081E+00   8.102E-02   7.115E-03   0.000E+00   0.000E+00
 27   35.000   3.691E+00   8.000E+00   1.081E+00   8.102E-02   7.198E-03   4.100E-05   0.000E+00
 28   40.000   3.692E+00   8.024E+00   1.081E+00   8.102E-02   7.198E-03   9.948E-05   0.000E+00
 29   45.000   3.692E+00   8.036E+00   1.081E+00   8.102E-02   7.198E-03   1.283E-04   0.000E+00
 30   50.000   3.692E+00   8.042E+00   1.081E+00   8.102E-02   7.198E-03   1.431E-04   0.000E+00
 31   70.000   3.692E+00   8.048E+00   1.081E+00   8.102E-02   7.198E-03   1.582E-04   0.000E+00
 32  100.000   3.692E+00   8.048E+00   1.081E+00   8.102E-02   7.198E-03   1.591E-04   0.000E+00



1  J    Z       H2O       O3        CO2       CO        CH4       N2O       O2        NH3       NO        NO2       SO2
      (KM)    (                                                      ATM CM                                             )

   1    1.00  1.96E+03  2.61E-03  3.26E+01  1.28E-02  1.48E-01  2.78E-02  1.81E+04  4.34E-05  2.61E-05  2.00E-06  2.49E-05
   2    2.00  3.34E+03  5.17E-03  6.22E+01  2.41E-02  2.82E-01  5.31E-02  3.47E+04  8.15E-05  4.98E-05  3.82E-06  4.51E-05
   3    3.00  4.17E+03  7.62E-03  8.91E+01  3.39E-02  4.04E-01  7.60E-02  4.96E+04  1.12E-04  7.12E-05  5.46E-06  6.03E-05
   4    4.00  4.58E+03  9.91E-03  1.13E+02  4.25E-02  5.14E-01  9.67E-02  6.32E+04  1.33E-04  9.07E-05  6.95E-06  7.11E-05
   5    5.00  4.81E+03  1.21E-02  1.35E+02  5.02E-02  6.13E-01  1.15E-01  7.54E+04  1.47E-04  1.08E-04  8.30E-06  7.88E-05
   6    6.00  4.95E+03  1.41E-02  1.55E+02  5.70E-02  7.03E-01  1.32E-01  8.65E+04  1.57E-04  1.24E-04  9.52E-06  8.45E-05
   7    7.00  5.03E+03  1.61E-02  1.73E+02  6.31E-02  7.84E-01  1.48E-01  9.64E+04  1.62E-04  1.38E-04  1.06E-05  8.88E-05
   8    8.00  5.07E+03  1.79E-02  1.89E+02  6.83E-02  8.57E-01  1.61E-01  1.05E+05  1.66E-04  1.51E-04  1.16E-05  9.21E-05
   9    9.00  5.10E+03  1.97E-02  2.04E+02  7.27E-02  9.23E-01  1.74E-01  1.13E+05  1.68E-04  1.63E-04  1.25E-05  9.48E-05
  10   10.00  5.11E+03  2.16E-02  2.16E+02  7.63E-02  9.81E-01  1.85E-01  1.21E+05  1.69E-04  1.73E-04  1.33E-05  9.70E-05
  11   11.00  5.11E+03  2.34E-02  2.28E+02  7.92E-02  1.03E+00  1.94E-01  1.27E+05  1.69E-04  1.82E-04  1.41E-05  9.88E-05
  12   12.00  5.11E+03  2.54E-02  2.38E+02  8.15E-02  1.08E+00  2.03E-01  1.33E+05  1.70E-04  1.91E-04  1.48E-05  1.00E-04
  13   13.00  5.11E+03  2.74E-02  2.47E+02  8.32E-02  1.12E+00  2.10E-01  1.38E+05  1.70E-04  1.98E-04  1.58E-05  1.02E-04
  14   14.00  5.11E+03  2.95E-02  2.55E+02  8.44E-02  1.15E+00  2.17E-01  1.42E+05  1.70E-04  2.04E-04  1.70E-05  1.03E-04
  15   15.00  5.11E+03  3.17E-02  2.62E+02  8.52E-02  1.18E+00  2.22E-01  1.46E+05  1.70E-04  2.10E-04  1.92E-05  1.04E-04
  16   16.00  5.11E+03  3.39E-02  2.68E+02  8.58E-02  1.21E+00  2.27E-01  1.50E+05  1.70E-04  2.14E-04  2.32E-05  1.05E-04
  17   17.00  5.11E+03  3.66E-02  2.74E+02  8.62E-02  1.23E+00  2.31E-01  1.52E+05  1.70E-04  2.18E-04  2.89E-05  1.06E-04
  18   18.00  5.11E+03  4.09E-02  2.78E+02  8.65E-02  1.25E+00  2.34E-01  1.55E+05  1.70E-04  2.21E-04  3.64E-05  1.06E-04
  19   19.00  5.11E+03  4.78E-02  2.82E+02  8.66E-02  1.26E+00  2.37E-01  1.57E+05  1.70E-04  2.23E-04  4.52E-05  1.07E-04
  20   20.00  5.11E+03  5.71E-02  2.85E+02  8.68E-02  1.28E+00  2.39E-01  1.59E+05  1.70E-04  2.25E-04  5.50E-05  1.07E-04
  21   21.00  5.11E+03  6.78E-02  2.87E+02  8.68E-02  1.28E+00  2.40E-01  1.60E+05  1.70E-04  2.27E-04  6.56E-05  1.07E-04
  22   22.00  5.11E+03  7.95E-02  2.89E+02  8.69E-02  1.29E+00  2.41E-01  1.61E+05  1.70E-04  2.28E-04  7.65E-05  1.07E-04
  23   23.00  5.11E+03  9.30E-02  2.91E+02  8.70E-02  1.30E+00  2.42E-01  1.62E+05  1.70E-04  2.30E-04  8.77E-05  1.07E-04
  24   24.00  5.11E+03  1.08E-01  2.93E+02  8.70E-02  1.30E+00  2.43E-01  1.63E+05  1.70E-04  2.32E-04  9.89E-05  1.08E-04
  25   25.00  5.11E+03  1.25E-01  2.94E+02  8.71E-02  1.31E+00  2.44E-01  1.64E+05  1.70E-04  2.33E-04  1.10E-04  1.08E-04
  26   30.00  5.11E+03  1.99E-01  2.98E+02  8.73E-02  1.32E+00  2.46E-01  1.66E+05  1.70E-04  2.47E-04  1.61E-04  1.08E-04
  27   35.00  5.11E+03  2.46E-01  3.00E+02  8.74E-02  1.32E+00  2.46E-01  1.67E+05  1.70E-04  2.68E-04  1.94E-04  1.08E-04
  28   40.00  5.11E+03  2.67E-01  3.01E+02  8.74E-02  1.32E+00  2.46E-01  1.68E+05  1.70E-04  2.89E-04  2.07E-04  1.08E-04
  29   45.00  5.11E+03  2.74E-01  3.01E+02  8.75E-02  1.32E+00  2.46E-01  1.68E+05  1.70E-04  3.02E-04  2.10E-04  1.08E-04
  30   50.00  5.11E+03  2.76E-01  3.01E+02  8.75E-02  1.32E+00  2.46E-01  1.68E+05  1.70E-04  3.09E-04  2.11E-04  1.08E-04
  31   70.00  5.11E+03  2.77E-01  3.02E+02  8.76E-02  1.32E+00  2.46E-01  1.68E+05  1.70E-04  3.15E-04  2.11E-04  1.08E-04
  32  100.00  5.11E+03  2.77E-01  3.02E+02  8.76E-02  1.32E+00  2.46E-01  1.68E+05  1.70E-04  3.18E-04  2.11E-04  1.08E-04



1  J    Z      CFC-11    CFC-12    CFC-13    CFC-14    CFC-22    CFC-113   CFC-114   CFC-115   CLONO2     HNO4     CHCL2F 
                CCL4      N2O5  
      (KM)    (                                                   ATM CM                                                )

   1    1.00  1.22E-05  2.08E-05  8.68E-14  8.68E-14  5.21E-06  1.65E-06  1.04E-06  8.68E-14  4.72E-07  1.08E-07  8.68E-14
              1.13E-05  5.05E-11
   2    2.00  2.32E-05  3.98E-05  1.66E-13  1.66E-13  9.95E-06  3.15E-06  1.99E-06  1.66E-13  8.53E-07  3.41E-07  1.66E-13
              2.16E-05  1.53E-10
   3    3.00  3.32E-05  5.70E-05  2.37E-13  2.37E-13  1.42E-05  4.51E-06  2.85E-06  2.37E-13  1.15E-06  6.74E-07  2.37E-13
              3.09E-05  2.96E-10
   4    4.00  4.23E-05  7.25E-05  3.02E-13  3.02E-13  1.81E-05  5.74E-06  3.63E-06  3.02E-13  1.38E-06  1.08E-06  3.02E-13
              3.93E-05  4.72E-10
   5    5.00  5.05E-05  8.66E-05  3.61E-13  3.61E-13  2.16E-05  6.85E-06  4.33E-06  3.61E-13  1.56E-06  1.81E-06  3.61E-13
              4.69E-05  6.68E-10
   6    6.00  5.79E-05  9.93E-05  4.14E-13  4.14E-13  2.48E-05  7.86E-06  4.96E-06  4.14E-13  1.69E-06  3.05E-06  4.14E-13
              5.38E-05  8.72E-10
   7    7.00  6.46E-05  1.11E-04  4.61E-13  4.61E-13  2.76E-05  8.77E-06  5.54E-06  4.61E-13  1.79E-06  4.69E-06  4.61E-13
              5.99E-05  1.08E-09
   8    8.00  7.06E-05  1.21E-04  5.04E-13  5.04E-13  3.02E-05  9.58E-06  6.05E-06  5.04E-13  1.85E-06  6.63E-06  5.04E-13
              6.55E-05  1.29E-09
   9    9.00  7.60E-05  1.30E-04  5.43E-13  5.43E-13  3.25E-05  1.03E-05  6.51E-06  5.43E-13  1.90E-06  8.55E-06  5.43E-13
              7.04E-05  1.50E-09
  10   10.00  8.08E-05  1.39E-04  5.77E-13  5.77E-13  3.45E-05  1.10E-05  6.93E-06  5.77E-13  1.94E-06  1.02E-05  5.77E-13
              7.49E-05  1.71E-09
  11   11.00  8.51E-05  1.46E-04  6.08E-13  6.08E-13  3.64E-05  1.15E-05  7.30E-06  6.08E-13  1.97E-06  1.16E-05  6.08E-13
              7.88E-05  1.91E-09
  12   12.00  8.89E-05  1.52E-04  6.35E-13  6.35E-13  3.80E-05  1.21E-05  7.62E-06  6.35E-13  2.01E-06  1.29E-05  6.35E-13
              8.24E-05  2.11E-09
  13   13.00  9.22E-05  1.58E-04  6.59E-13  6.59E-13  3.94E-05  1.25E-05  7.91E-06  6.59E-13  2.11E-06  1.41E-05  6.59E-13
              8.54E-05  7.19E-09
  14   14.00  9.50E-05  1.63E-04  6.81E-13  6.81E-13  4.07E-05  1.29E-05  8.16E-06  6.81E-13  2.35E-06  1.54E-05  6.81E-13
              8.80E-05  2.09E-08
  15   15.00  9.74E-05  1.67E-04  6.99E-13  6.99E-13  4.17E-05  1.32E-05  8.38E-06  6.99E-13  2.69E-06  1.68E-05  6.99E-13
              9.03E-05  4.10E-08
  16   16.00  9.95E-05  1.71E-04  7.16E-13  7.16E-13  4.27E-05  1.35E-05  8.57E-06  7.16E-13  3.10E-06  1.82E-05  7.16E-13
              9.21E-05  6.57E-08
  17   17.00  1.01E-04  1.74E-04  7.30E-13  7.30E-13  4.35E-05  1.38E-05  8.73E-06  7.30E-13  3.97E-06  1.99E-05  7.30E-13
              9.36E-05  1.36E-07
  18   18.00  1.02E-04  1.77E-04  7.41E-13  7.41E-13  4.41E-05  1.40E-05  8.86E-06  7.41E-13  5.56E-06  2.18E-05  7.41E-13
              9.48E-05  2.77E-07
  19   19.00  1.03E-04  1.79E-04  7.51E-13  7.51E-13  4.46E-05  1.41E-05  8.96E-06  7.51E-13  7.59E-06  2.39E-05  7.51E-13
              9.56E-05  4.63E-07
  20   20.00  1.04E-04  1.80E-04  7.59E-13  7.59E-13  4.51E-05  1.42E-05  9.05E-06  7.59E-13  9.86E-06  2.60E-05  7.59E-13
              9.62E-05  6.74E-07
  21   21.00  1.05E-04  1.81E-04  7.66E-13  7.66E-13  4.54E-05  1.43E-05  9.11E-06  7.66E-13  1.25E-05  2.81E-05  7.66E-13
              9.66E-05  9.11E-07
  22   22.00  1.05E-04  1.82E-04  7.72E-13  7.72E-13  4.57E-05  1.44E-05  9.17E-06  7.72E-13  1.54E-05  3.03E-05  7.72E-13
              9.69E-05  1.17E-06
  23   23.00  1.05E-04  1.83E-04  7.76E-13  7.76E-13  4.59E-05  1.44E-05  9.21E-06  7.76E-13  1.86E-05  3.24E-05  7.76E-13
              9.71E-05  1.45E-06
  24   24.00  1.05E-04  1.84E-04  7.80E-13  7.80E-13  4.61E-05  1.45E-05  9.24E-06  7.80E-13  2.18E-05  3.45E-05  7.80E-13
              9.72E-05  1.73E-06
  25   25.00  1.05E-04  1.84E-04  7.84E-13  7.84E-13  4.62E-05  1.45E-05  9.27E-06  7.84E-13  2.49E-05  3.64E-05  7.84E-13
              9.73E-05  1.99E-06
  26   30.00  1.06E-04  1.85E-04  7.95E-13  7.95E-13  4.66E-05  1.45E-05  9.35E-06  7.95E-13  3.62E-05  4.23E-05  7.95E-13
              9.74E-05  2.71E-06
  27   35.00  1.06E-04  1.85E-04  7.99E-13  7.99E-13  4.67E-05  1.46E-05  9.37E-06  7.99E-13  4.03E-05  4.39E-05  7.99E-13
              9.74E-05  2.86E-06
  28   40.00  1.06E-04  1.85E-04  8.02E-13  8.02E-13  4.68E-05  1.46E-05  9.38E-06  8.02E-13  4.08E-05  4.40E-05  8.02E-13
              9.74E-05  2.87E-06
  29   45.00  1.06E-04  1.85E-04  8.03E-13  8.03E-13  4.68E-05  1.46E-05  9.38E-06  8.03E-13  4.08E-05  4.40E-05  8.03E-13
              9.74E-05  2.87E-06
  30   50.00  1.06E-04  1.85E-04  8.04E-13  8.04E-13  4.68E-05  1.46E-05  9.38E-06  8.04E-13  4.08E-05  4.40E-05  8.04E-13
              9.74E-05  2.87E-06
  31   70.00  1.06E-04  1.85E-04  8.04E-13  8.04E-13  4.68E-05  1.46E-05  9.38E-06  8.04E-13  4.08E-05  4.40E-05  8.04E-13
              9.74E-05  2.87E-06
  32  100.00  1.06E-04  1.85E-04  8.04E-13  8.04E-13  4.68E-05  1.46E-05  9.38E-06  8.04E-13  4.08E-05  4.40E-05  8.04E-13
              9.74E-05  2.87E-06


0SUMMARY OF THE GEOMETRY CALCULATION

          H1      =      0.001 KM
          H2      =    100.000 KM
          ANGLE   =      0.000 DEG
          RANGE   =     99.999 KM
          BETA    =      0.000 DEG
          PHI     =    180.000 DEG
          HMIN    =      0.001 KM
          BENDING =      0.000 DEG
          LEN     =          0




1EQUIVALENT SEA LEVEL TOTAL ABSORBER AMOUNTS

                 HNO3      O3 UV       CNTMSLF1    CNTMSLF2   CNTMFRN
               (ATM CM)   (ATM CM)     (MOL CM-2)  (MOL CM-2)  (MOL CM-2)  (MOL CM-2)

             3.804E-04   2.773E-01   1.977E+21   1.576E+20   1.131E+23


              N2 CONT    MOL SCAT       AER 1       AER 2       AER 3       AER 4     CIRRUS      MEAN RH
                                                                                                  (PRCNT)

             3.692E+00   8.048E+00   1.081E+00   8.102E-02   7.198E-03   1.591E-04   0.000E+00       73.98


                 H2O        O3          CO2         CO          CH4         N2O          O2
               (                                        ATM CM                            )

             5.113E+03   2.773E-01   3.016E+02   8.758E-02   1.323E+00   2.463E-01   1.681E+05

                 NH3        NO          NO2         SO2
                 (               ATM CM               )

             1.697E-04   3.179E-04   2.111E-04   1.079E-04

             CFC-11      CFC-12      CFC-13      CFC-14      CFC-22      CFC-113     CFC-114
                 (                                      ATM CM                            )

             1.055E-04   1.851E-04   8.043E-13   8.043E-13   4.678E-05   1.455E-05   9.381E-06

             CFC-115     CLONO2       HNO4       CHCL2F       CCL4        N2O5  
                 (                                      ATM CM                            )

             8.043E-13   4.084E-05   4.403E-05   8.043E-13   9.739E-05   2.871E-06
1                                             RADIANCE(WATTS/CM2-STER-XXX)
0  FREQ   WAVLEN    PATH THERMAL      SURFACE EMISSION    SURFACE REFLECTED     TOTAL RADIANCE   INTEGRAL    TOTAL
  (CM-1) (MICRN)    (CM-1)   (MICRN)    (CM-1)   (MICRN)    (CM-1)   (MICRN)    (CM-1)   (MICRN)    (CM-1)   TRANS

    100. 100.000  1.93E-06  1.93E-06  0.00E+00  0.00E+00  0.00E+00  0.00E+00  1.93E-06  1.93E-06  1.93E-06  0.00000
    102.  98.039  2.00E-06  2.08E-06  0.00E+00  0.00E+00  0.00E+00  0.00E+00  2.00E-06  2.08E-06  5.93E-06  0.00000
    104.  96.154  2.07E-06  2.23E-06  0.00E+00  0.00E+00  0.00E+00  0.00E+00  2.07E-06  2.23E-06  1.01E-05  0.00000
    106.  94.340  2.14E-06  2.40E-06  0.00E+00  0.00E+00  0.00E+00  0.00E+00  2.14E-06  2.40E-06  1.43E-05  0.00000
    108.  92.593  2.20E-06  2.57E-06  0.00E+00  0.00E+00  0.00E+00  0.00E+00  2.20E-06  2.57E-06  1.87E-05  0.00000
    110.  90.909  2.28E-06  2.75E-06  0.00E+00  0.00E+00  0.00E+00  0.00E+00  2.28E-06  2.75E-06  2.33E-05  0.00000
    112.  89.286  2.35E-06  2.94E-06  0.00E+00  0.00E+00  0.00E+00  0.00E+00  2.35E-06  2.94E-06  2.80E-05  0.00000
    114.  87.719  2.42E-06  3.14E-06  0.00E+00  0.00E+00  0.00E+00  0.00E+00  2.42E-06  3.14E-06  3.28E-05  0.00000
    116.  86.207  2.49E-06  3.35E-06  0.00E+00  0.00E+00  0.00E+00  0.00E+00  2.49E-06  3.35E-06  3.78E-05  0.00000
    118.  84.746  2.56E-06  3.57E-06  0.00E+00  0.00E+00  0.00E+00  0.00E+00  2.56E-06  3.57E-06  4.29E-05  0.00000
    120.  83.333  2.64E-06  3.80E-06  0.00E+00  0.00E+00  0.00E+00  0.00E+00  2.64E-06  3.80E-06  4.82E-05  0.00000
    122.  81.967  2.71E-06  4.04E-06  0.00E+00  0.00E+00  0.00E+00  0.00E+00  2.71E-06  4.04E-06  5.36E-05  0.00000
    124.  80.645  2.79E-06  4.29E-06  0.00E+00  0.00E+00  0.00E+00  0.00E+00  2.79E-06  4.29E-06  5.92E-05  0.00000
    126.  79.365  2.86E-06  4.54E-06  0.00E+00  0.00E+00  0.00E+00  0.00E+00  2.86E-06  4.54E-06  6.49E-05  0.00000
    128.  78.125  2.94E-06  4.81E-06  0.00E+00  0.00E+00  0.00E+00  0.00E+00  2.94E-06  4.81E-06  7.08E-05  0.00000
    130.  76.923  3.01E-06  5.10E-06  0.00E+00  0.00E+00  0.00E+00  0.00E+00  3.01E-06  5.10E-06  7.68E-05  0.00000
    132.  75.758  3.09E-06  5.39E-06  0.00E+00  0.00E+00  0.00E+00  0.00E+00  3.09E-06  5.39E-06  8.30E-05  0.00000
    134.  74.627  3.17E-06  5.69E-06  0.00E+00  0.00E+00  0.00E+00  0.00E+00  3.17E-06  5.69E-06  8.94E-05  0.00000
    136.  73.529  3.25E-06  6.01E-06  0.00E+00  0.00E+00  0.00E+00  0.00E+00  3.25E-06  6.01E-06  9.58E-05  0.00000
    138.  72.464  3.33E-06  6.33E-06  0.00E+00  0.00E+00  0.00E+00  0.00E+00  3.33E-06  6.33E-06  1.03E-04  0.00000
    140.  71.429  3.40E-06  6.67E-06  0.00E+00  0.00E+00  0.00E+00  0.00E+00  3.40E-06  6.67E-06  1.09E-04  0.00000
    142.  70.423  3.48E-06  7.03E-06  0.00E+00  0.00E+00  0.00E+00  0.00E+00  3.48E-06  7.03E-06  1.16E-04  0.00000
    144.  69.444  3.56E-06  7.39E-06  0.00E+00  0.00E+00  0.00E+00  0.00E+00  3.56E-06  7.39E-06  1.23E-04  0.00000
    146.  68.493  3.64E-06  7.77E-06  0.00E+00  0.00E+00  0.00E+00  0.00E+00  3.64E-06  7.77E-06  1.31E-04  0.00000
    148.  67.568  3.72E-06  8.16E-06  0.00E+00  0.00E+00  0.00E+00  0.00E+00  3.72E-06  8.16E-06  1.38E-04  0.00000
    150.  66.667  3.81E-06  8.56E-06  0.00E+00  0.00E+00  0.00E+00  0.00E+00  3.81E-06  8.56E-06  1.46E-04  0.00000
    152.  65.789  3.89E-06  8.98E-06  0.00E+00  0.00E+00  0.00E+00  0.00E+00  3.89E-06  8.98E-06  1.54E-04  0.00000
    154.  64.935  3.97E-06  9.41E-06  0.00E+00  0.00E+00  0.00E+00  0.00E+00  3.97E-06  9.41E-06  1.61E-04  0.00000
    156.  64.103  4.05E-06  9.86E-06  0.00E+00  0.00E+00  0.00E+00  0.00E+00  4.05E-06  9.86E-06  1.70E-04  0.00000
    158.  63.291  4.13E-06  1.03E-05  0.00E+00  0.00E+00  0.00E+00  0.00E+00  4.13E-06  1.03E-05  1.78E-04  0.00000
    160.  62.500  4.21E-06  1.08E-05  0.00E+00  0.00E+00  0.00E+00  0.00E+00  4.21E-06  1.08E-05  1.86E-04  0.00000
    162.  61.728  4.30E-06  1.13E-05  0.00E+00  0.00E+00  0.00E+00  0.00E+00  4.30E-06  1.13E-05  1.95E-04  0.00000
    164.  60.976  4.38E-06  1.18E-05  0.00E+00  0.00E+00  0.00E+00  0.00E+00  4.38E-06  1.18E-05  2.04E-04  0.00000
    166.  60.241  4.46E-06  1.23E-05  0.00E+00  0.00E+00  0.00E+00  0.00E+00  4.46E-06  1.23E-05  2.13E-04  0.00000
    168.  59.524  4.55E-06  1.28E-05  0.00E+00  0.00E+00  0.00E+00  0.00E+00  4.55E-06  1.28E-05  2.22E-04  0.00000
    170.  58.824  4.63E-06  1.34E-05  0.00E+00  0.00E+00  0.00E+00  0.00E+00  4.63E-06  1.34E-05  2.31E-04  0.00000
    172.  58.140  4.71E-06  1.39E-05  0.00E+00  0.00E+00  0.00E+00  0.00E+00  4.71E-06  1.39E-05  2.40E-04  0.00000
    174.  57.471  4.80E-06  1.45E-05  0.00E+00  0.00E+00  0.00E+00  0.00E+00  4.80E-06  1.45E-05  2.50E-04  0.00000
    176.  56.818  4.88E-06  1.51E-05  0.00E+00  0.00E+00  0.00E+00  0.00E+00  4.88E-06  1.51E-05  2.60E-04  0.00000
    178.  56.180  4.97E-06  1.57E-05  0.00E+00  0.00E+00  0.00E+00  0.00E+00  4.97E-06  1.57E-05  2.70E-04  0.00000
    180.  55.556  5.05E-06  1.64E-05  0.00E+00  0.00E+00  0.00E+00  0.00E+00  5.05E-06  1.64E-05  2.80E-04  0.00000
    182.  54.945  5.14E-06  1.70E-05  0.00E+00  0.00E+00  0.00E+00  0.00E+00  5.14E-06  1.70E-05  2.90E-04  0.00000
    184.  54.348  5.22E-06  1.77E-05  0.00E+00  0.00E+00  0.00E+00  0.00E+00  5.22E-06  1.77E-05  3.00E-04  0.00000
    186.  53.763  5.30E-06  1.84E-05  0.00E+00  0.00E+00  0.00E+00  0.00E+00  5.30E-06  1.84E-05  3.11E-04  0.00000
    188.  53.191  5.39E-06  1.90E-05  0.00E+00  0.00E+00  0.00E+00  0.00E+00  5.39E-06  1.90E-05  3.22E-04  0.00000
    190.  52.632  5.47E-06  1.98E-05  0.00E+00  0.00E+00  0.00E+00  0.00E+00  5.47E-06  1.98E-05  3.33E-04  0.00000
    192.  52.083  5.56E-06  2.05E-05  0.00E+00  0.00E+00  0.00E+00  0.00E+00  5.56E-06  2.05E-05  3.44E-04  0.00000
    194.  51.546  5.64E-06  2.12E-05  0.00E+00  0.00E+00  0.00E+00  0.00E+00  5.64E-06  2.12E-05  3.55E-04  0.00000
    196.  51.020  5.73E-06  2.20E-05  0.00E+00  0.00E+00  0.00E+00  0.00E+00  5.73E-06  2.20E-05  3.67E-04  0.00000
    198.  50.505  5.81E-06  2.28E-05  0.00E+00  0.00E+00  0.00E+00  0.00E+00  5.81E-06  2.28E-05  3.78E-04  0.00000
1                                             RADIANCE(WATTS/CM2-STER-XXX)
0  FREQ   WAVLEN    PATH THERMAL      SURFACE EMISSION    SURFACE REFLECTED     TOTAL RADIANCE   INTEGRAL    TOTAL
  (CM-1) (MICRN)    (CM-1)   (MICRN)    (CM-1)   (MICRN)    (CM-1)   (MICRN)    (CM-1)   (MICRN)    (CM-1)   TRANS

    200.  50.000  5.90E-06  2.36E-05  0.00E+00  0.00E+00  0.00E+00  0.00E+00  5.90E-06  2.36E-05  3.90E-04  0.00000
    202.  49.505  5.98E-06  2.44E-05  0.00E+00  0.00E+00  0.00E+00  0.00E+00  5.98E-06  2.44E-05  4.02E-04  0.00000
    204.  49.020  6.07E-06  2.53E-05  0.00E+00  0.00E+00  0.00E+00  0.00E+00  6.07E-06  2.53E-05  4.14E-04  0.00000
    206.  48.544  6.16E-06  2.61E-05  0.00E+00  0.00E+00  0.00E+00  0.00E+00  6.16E-06  2.61E-05  4.26E-04  0.00000
    208.  48.077  6.24E-06  2.70E-05  0.00E+00  0.00E+00  0.00E+00  0.00E+00  6.24E-06  2.70E-05  4.39E-04  0.00000
    210.  47.619  6.33E-06  2.79E-05  0.00E+00  0.00E+00  0.00E+00  0.00E+00  6.33E-06  2.79E-05  4.52E-04  0.00000
    212.  47.170  6.41E-06  2.88E-05  0.00E+00  0.00E+00  0.00E+00  0.00E+00  6.41E-06  2.88E-05  4.64E-04  0.00000
    214.  46.729  6.50E-06  2.97E-05  0.00E+00  0.00E+00  0.00E+00  0.00E+00  6.50E-06  2.97E-05  4.77E-04  0.00000
    216.  46.296  6.58E-06  3.07E-05  0.00E+00  0.00E+00  0.00E+00  0.00E+00  6.58E-06  3.07E-05  4.91E-04  0.00000
    218.  45.872  6.67E-06  3.17E-05  0.00E+00  0.00E+00  0.00E+00  0.00E+00  6.67E-06  3.17E-05  5.04E-04  0.00000
    220.  45.455  6.75E-06  3.27E-05  0.00E+00  0.00E+00  0.00E+00  0.00E+00  6.75E-06  3.27E-05  5.17E-04  0.00000
    222.  45.045  6.83E-06  3.37E-05  0.00E+00  0.00E+00  0.00E+00  0.00E+00  6.83E-06  3.37E-05  5.31E-04  0.00000
    224.  44.643  6.92E-06  3.47E-05  0.00E+00  0.00E+00  0.00E+00  0.00E+00  6.92E-06  3.47E-05  5.45E-04  0.00000
    226.  44.248  7.00E-06  3.58E-05  0.00E+00  0.00E+00  0.00E+00  0.00E+00  7.00E-06  3.58E-05  5.59E-04  0.00000
    228.  43.860  7.09E-06  3.68E-05  0.00E+00  0.00E+00  0.00E+00  0.00E+00  7.09E-06  3.68E-05  5.73E-04  0.00000
    230.  43.478  7.17E-06  3.79E-05  0.00E+00  0.00E+00  0.00E+00  0.00E+00  7.17E-06  3.79E-05  5.87E-04  0.00000
    232.  43.103  7.26E-06  3.91E-05  0.00E+00  0.00E+00  0.00E+00  0.00E+00  7.26E-06  3.91E-05  6.02E-04  0.00000
    234.  42.735  7.34E-06  4.02E-05  0.00E+00  0.00E+00  0.00E+00  0.00E+00  7.34E-06  4.02E-05  6.17E-04  0.00000
    236.  42.373  7.42E-06  4.13E-05  0.00E+00  0.00E+00  0.00E+00  0.00E+00  7.42E-06  4.13E-05  6.31E-04  0.00000
    238.  42.017  7.51E-06  4.25E-05  0.00E+00  0.00E+00  0.00E+00  0.00E+00  7.51E-06  4.25E-05  6.46E-04  0.00000
    240.  41.667  7.59E-06  4.37E-05  0.00E+00  0.00E+00  0.00E+00  0.00E+00  7.59E-06  4.37E-05  6.62E-04  0.00000
    242.  41.322  7.67E-06  4.49E-05  0.00E+00  0.00E+00  0.00E+00  0.00E+00  7.67E-06  4.49E-05  6.77E-04  0.00000
    244.  40.984  7.76E-06  4.62E-05  0.00E+00  0.00E+00  0.00E+00  0.00E+00  7.76E-06  4.62E-05  6.93E-04  0.00000
    246.  40.650  7.84E-06  4.74E-05  0.00E+00  0.00E+00  0.00E+00  0.00E+00  7.84E-06  4.74E-05  7.08E-04  0.00000
    248.  40.323  7.92E-06  4.87E-05  0.00E+00  0.00E+00  0.00E+00  0.00E+00  7.92E-06  4.87E-05  7.24E-04  0.00000
    250.  40.000  8.00E-06  5.00E-05  0.00E+00  0.00E+00  0.00E+00  0.00E+00  8.00E-06  5.00E-05  7.40E-04  0.00000
    252.  39.683  8.08E-06  5.13E-05  0.00E+00  0.00E+00  0.00E+00  0.00E+00  8.08E-06  5.13E-05  7.56E-04  0.00000
    254.  39.370  8.17E-06  5.27E-05  0.00E+00  0.00E+00  0.00E+00  0.00E+00  8.17E-06  5.27E-05  7.73E-04  0.00000
    256.  39.063  8.25E-06  5.41E-05  0.00E+00  0.00E+00  0.00E+00  0.00E+00  8.25E-06  5.41E-05  7.89E-04  0.00000
    258.  38.760  8.33E-06  5.54E-05  0.00E+00  0.00E+00  0.00E+00  0.00E+00  8.33E-06  5.54E-05  8.06E-04  0.00000
    260.  38.462  8.41E-06  5.69E-05  0.00E+00  0.00E+00  0.00E+00  0.00E+00  8.41E-06  5.69E-05  8.23E-04  0.00000
    262.  38.168  8.49E-06  5.83E-05  0.00E+00  0.00E+00  0.00E+00  0.00E+00  8.49E-06  5.83E-05  8.40E-04  0.00000
    264.  37.879  8.57E-06  5.97E-05  0.00E+00  0.00E+00  0.00E+00  0.00E+00  8.57E-06  5.97E-05  8.57E-04  0.00000
    266.  37.594  8.65E-06  6.12E-05  0.00E+00  0.00E+00  0.00E+00  0.00E+00  8.65E-06  6.12E-05  8.74E-04  0.00000
    268.  37.313  8.73E-06  6.27E-05  0.00E+00  0.00E+00  0.00E+00  0.00E+00  8.73E-06  6.27E-05  8.91E-04  0.00000
    270.  37.037  8.81E-06  6.42E-05  0.00E+00  0.00E+00  0.00E+00  0.00E+00  8.81E-06  6.42E-05  9.09E-04  0.00000
    272.  36.765  8.89E-06  6.58E-05  0.00E+00  0.00E+00  0.00E+00  0.00E+00  8.89E-06  6.58E-05  9.27E-04  0.00000
    274.  36.496  8.97E-06  6.73E-05  0.00E+00  0.00E+00  0.00E+00  0.00E+00  8.97E-06  6.73E-05  9.45E-04  0.00000
    276.  36.232  9.05E-06  6.89E-05  0.00E+00  0.00E+00  0.00E+00  0.00E+00  9.05E-06  6.89E-05  9.63E-04  0.00000
    278.  35.971  9.12E-06  7.05E-05  0.00E+00  0.00E+00  0.00E+00  0.00E+00  9.12E-06  7.05E-05  9.81E-04  0.00000
    280.  35.714  9.20E-06  7.21E-05  0.00E+00  0.00E+00  0.00E+00  0.00E+00  9.20E-06  7.21E-05  9.99E-04  0.00000
    282.  35.461  9.28E-06  7.38E-05  0.00E+00  0.00E+00  0.00E+00  0.00E+00  9.28E-06  7.38E-05  1.02E-03  0.00000
    284.  35.211  9.36E-06  7.55E-05  0.00E+00  0.00E+00  0.00E+00  0.00E+00  9.36E-06  7.55E-05  1.04E-03  0.00000
    286.  34.965  9.43E-06  7.72E-05  0.00E+00  0.00E+00  0.00E+00  0.00E+00  9.43E-06  7.72E-05  1.06E-03  0.00000
    288.  34.722  9.51E-06  7.89E-05  0.00E+00  0.00E+00  0.00E+00  0.00E+00  9.51E-06  7.89E-05  1.07E-03  0.00000
    290.  34.483  9.59E-06  8.06E-05  0.00E+00  0.00E+00  0.00E+00  0.00E+00  9.59E-06  8.06E-05  1.09E-03  0.00000
    292.  34.247  9.66E-06  8.24E-05  0.00E+00  0.00E+00  0.00E+00  0.00E+00  9.66E-06  8.24E-05  1.11E-03  0.00000
    294.  34.014  9.74E-06  8.42E-05  0.00E+00  0.00E+00  0.00E+00  0.00E+00  9.74E-06  8.42E-05  1.13E-03  0.00000
    296.  33.784  9.81E-06  8.60E-05  0.00E+00  0.00E+00  0.00E+00  0.00E+00  9.81E-06  8.60E-05  1.15E-03  0.00000
    298.  33.557  9.89E-06  8.78E-05  0.00E+00  0.00E+00  0.00E+00  0.00E+00  9.89E-06  8.78E-05  1.17E-03  0.00000
1                                             RADIANCE(WATTS/CM2-STER-XXX)
0  FREQ   WAVLEN    PATH THERMAL      SURFACE EMISSION    SURFACE REFLECTED     TOTAL RADIANCE   INTEGRAL    TOTAL
  (CM-1) (MICRN)    (CM-1)   (MICRN)    (CM-1)   (MICRN)    (CM-1)   (MICRN)    (CM-1)   (MICRN)    (CM-1)   TRANS

    300.  33.333  9.96E-06  8.96E-05  0.00E+00  0.00E+00  0.00E+00  0.00E+00  9.96E-06  8.96E-05  1.19E-03  0.00000
    302.  33.113  1.00E-05  9.15E-05  0.00E+00  0.00E+00  0.00E+00  0.00E+00  1.00E-05  9.15E-05  1.21E-03  0.00000
    304.  32.895  1.01E-05  9.34E-05  0.00E+00  0.00E+00  0.00E+00  0.00E+00  1.01E-05  9.34E-05  1.23E-03  0.00000
    306.  32.680  1.02E-05  9.53E-05  0.00E+00  0.00E+00  0.00E+00  0.00E+00  1.02E-05  9.53E-05  1.25E-03  0.00000
    308.  32.468  1.03E-05  9.73E-05  0.00E+00  0.00E+00  0.00E+00  0.00E+00  1.03E-05  9.73E-05  1.27E-03  0.00000
    310.  32.258  1.03E-05  9.92E-05  0.00E+00  0.00E+00  0.00E+00  0.00E+00  1.03E-05  9.92E-05  1.29E-03  0.00000
    312.  32.051  1.04E-05  1.01E-04  0.00E+00  0.00E+00  0.00E+00  0.00E+00  1.04E-05  1.01E-04  1.31E-03  0.00000
    314.  31.847  1.05E-05  1.03E-04  0.00E+00  0.00E+00  0.00E+00  0.00E+00  1.05E-05  1.03E-04  1.34E-03  0.00000
    316.  31.646  1.05E-05  1.05E-04  0.00E+00  0.00E+00  0.00E+00  0.00E+00  1.05E-05  1.05E-04  1.36E-03  0.00000
    318.  31.447  1.06E-05  1.07E-04  0.00E+00  0.00E+00  0.00E+00  0.00E+00  1.06E-05  1.07E-04  1.38E-03  0.00000
    320.  31.250  1.07E-05  1.09E-04  0.00E+00  0.00E+00  0.00E+00  0.00E+00  1.07E-05  1.09E-04  1.40E-03  0.00000
    322.  31.056  1.07E-05  1.11E-04  0.00E+00  0.00E+00  0.00E+00  0.00E+00  1.07E-05  1.11E-04  1.42E-03  0.00000
    324.  30.864  1.08E-05  1.14E-04  0.00E+00  0.00E+00  0.00E+00  0.00E+00  1.08E-05  1.14E-04  1.44E-03  0.00000
    326.  30.675  1.09E-05  1.16E-04  0.00E+00  0.00E+00  0.00E+00  0.00E+00  1.09E-05  1.16E-04  1.46E-03  0.00000
    328.  30.488  1.10E-05  1.18E-04  0.00E+00  0.00E+00  0.00E+00  0.00E+00  1.10E-05  1.18E-04  1.49E-03  0.00000
    330.  30.303  1.10E-05  1.20E-04  0.00E+00  0.00E+00  0.00E+00  0.00E+00  1.10E-05  1.20E-04  1.51E-03  0.00000
    332.  30.120  1.11E-05  1.22E-04  0.00E+00  0.00E+00  0.00E+00  0.00E+00  1.11E-05  1.22E-04  1.53E-03  0.00000
    334.  29.940  1.12E-05  1.24E-04  0.00E+00  0.00E+00  0.00E+00  0.00E+00  1.12E-05  1.24E-04  1.55E-03  0.00000
    336.  29.762  1.12E-05  1.27E-04  0.00E+00  0.00E+00  0.00E+00  0.00E+00  1.12E-05  1.27E-04  1.57E-03  0.00000
    338.  29.586  1.13E-05  1.29E-04  0.00E+00  0.00E+00  0.00E+00  0.00E+00  1.13E-05  1.29E-04  1.60E-03  0.00000
    340.  29.412  1.13E-05  1.31E-04  0.00E+00  0.00E+00  0.00E+00  0.00E+00  1.13E-05  1.31E-04  1.62E-03  0.00000
    342.  29.240  1.14E-05  1.33E-04  0.00E+00  0.00E+00  0.00E+00  0.00E+00  1.14E-05  1.33E-04  1.64E-03  0.00000
    344.  29.070  1.15E-05  1.36E-04  0.00E+00  0.00E+00  0.00E+00  0.00E+00  1.15E-05  1.36E-04  1.67E-03  0.00000
    346.  28.902  1.15E-05  1.38E-04  0.00E+00  0.00E+00  0.00E+00  0.00E+00  1.15E-05  1.38E-04  1.69E-03  0.00000
    348.  28.736  1.16E-05  1.41E-04  0.00E+00  0.00E+00  0.00E+00  0.00E+00  1.16E-05  1.41E-04  1.71E-03  0.00000
    350.  28.571  1.17E-05  1.43E-04  0.00E+00  0.00E+00  0.00E+00  0.00E+00  1.17E-05  1.43E-04  1.74E-03  0.00000
    352.  28.409  1.17E-05  1.45E-04  0.00E+00  0.00E+00  0.00E+00  0.00E+00  1.17E-05  1.45E-04  1.76E-03  0.00000
    354.  28.249  1.18E-05  1.48E-04  0.00E+00  0.00E+00  0.00E+00  0.00E+00  1.18E-05  1.48E-04  1.78E-03  0.00000
    356.  28.090  1.19E-05  1.50E-04  0.00E+00  0.00E+00  0.00E+00  0.00E+00  1.19E-05  1.50E-04  1.81E-03  0.00000
    358.  27.933  1.19E-05  1.53E-04  0.00E+00  0.00E+00  0.00E+00  0.00E+00  1.19E-05  1.53E-04  1.83E-03  0.00000
    360.  27.778  1.20E-05  1.55E-04  0.00E+00  0.00E+00  0.00E+00  0.00E+00  1.20E-05  1.55E-04  1.85E-03  0.00000
    362.  27.624  1.20E-05  1.58E-04  0.00E+00  0.00E+00  0.00E+00  0.00E+00  1.20E-05  1.58E-04  1.88E-03  0.00000
    364.  27.473  1.21E-05  1.60E-04  0.00E+00  0.00E+00  0.00E+00  0.00E+00  1.21E-05  1.60E-04  1.90E-03  0.00000
    366.  27.322  1.21E-05  1.63E-04  0.00E+00  0.00E+00  0.00E+00  0.00E+00  1.21E-05  1.63E-04  1.93E-03  0.00000
    368.  27.174  1.22E-05  1.65E-04  0.00E+00  0.00E+00  0.00E+00  0.00E+00  1.22E-05  1.65E-04  1.95E-03  0.00000
    370.  27.027  1.23E-05  1.68E-04  0.00E+00  0.00E+00  0.00E+00  0.00E+00  1.23E-05  1.68E-04  1.98E-03  0.00000
    372.  26.882  1.23E-05  1.71E-04  0.00E+00  0.00E+00  0.00E+00  0.00E+00  1.23E-05  1.71E-04  2.00E-03  0.00000
    374.  26.738  1.24E-05  1.73E-04  0.00E+00  0.00E+00  0.00E+00  0.00E+00  1.24E-05  1.73E-04  2.02E-03  0.00000
    376.  26.596  1.24E-05  1.76E-04  0.00E+00  0.00E+00  0.00E+00  0.00E+00  1.24E-05  1.76E-04  2.05E-03  0.00000
    378.  26.455  1.25E-05  1.79E-04  0.00E+00  0.00E+00  0.00E+00  0.00E+00  1.25E-05  1.79E-04  2.07E-03  0.00000
    380.  26.316  1.25E-05  1.81E-04  0.00E+00  0.00E+00  0.00E+00  0.00E+00  1.25E-05  1.81E-04  2.10E-03  0.00000
    382.  26.178  1.26E-05  1.84E-04  0.00E+00  0.00E+00  0.00E+00  0.00E+00  1.26E-05  1.84E-04  2.13E-03  0.00000
    384.  26.042  1.26E-05  1.87E-04  0.00E+00  0.00E+00  0.00E+00  0.00E+00  1.26E-05  1.87E-04  2.15E-03  0.00000
    386.  25.907  1.27E-05  1.89E-04  0.00E+00  0.00E+00  0.00E+00  0.00E+00  1.27E-05  1.89E-04  2.18E-03  0.00000
    388.  25.773  1.27E-05  1.92E-04  0.00E+00  0.00E+00  0.00E+00  0.00E+00  1.27E-05  1.92E-04  2.20E-03  0.00000
    390.  25.641  1.28E-05  1.95E-04  0.00E+00  0.00E+00  0.00E+00  0.00E+00  1.28E-05  1.95E-04  2.23E-03  0.00000
    392.  25.510  1.29E-05  1.98E-04  0.00E+00  0.00E+00  0.00E+00  0.00E+00  1.29E-05  1.98E-04  2.25E-03  0.00000
    394.  25.381  1.29E-05  2.00E-04  0.00E+00  0.00E+00  0.00E+00  0.00E+00  1.29E-05  2.00E-04  2.28E-03  0.00000
    396.  25.253  1.30E-05  2.03E-04  0.00E+00  0.00E+00  0.00E+00  0.00E+00  1.30E-05  2.03E-04  2.30E-03  0.00000
    398.  25.126  1.30E-05  2.06E-04  0.00E+00  0.00E+00  0.00E+00  0.00E+00  1.30E-05  2.06E-04  2.33E-03  0.00000
1                                             RADIANCE(WATTS/CM2-STER-XXX)
0  FREQ   WAVLEN    PATH THERMAL      SURFACE EMISSION    SURFACE REFLECTED     TOTAL RADIANCE   INTEGRAL    TOTAL
  (CM-1) (MICRN)    (CM-1)   (MICRN)    (CM-1)   (MICRN)    (CM-1)   (MICRN)    (CM-1)   (MICRN)    (CM-1)   TRANS

    400.  25.000  1.31E-05  2.09E-04  0.00E+00  0.00E+00  0.00E+00  0.00E+00  1.31E-05  2.09E-04  2.36E-03  0.00000
    402.  24.876  1.31E-05  2.12E-04  0.00E+00  0.00E+00  0.00E+00  0.00E+00  1.31E-05  2.12E-04  2.38E-03  0.00000
    404.  24.752  1.31E-05  2.14E-04  0.00E+00  0.00E+00  0.00E+00  0.00E+00  1.31E-05  2.14E-04  2.41E-03  0.00000
    406.  24.631  1.32E-05  2.17E-04  0.00E+00  0.00E+00  0.00E+00  0.00E+00  1.32E-05  2.17E-04  2.44E-03  0.00000
    408.  24.510  1.32E-05  2.20E-04  0.00E+00  0.00E+00  0.00E+00  0.00E+00  1.32E-05  2.20E-04  2.46E-03  0.00000
    410.  24.390  1.33E-05  2.23E-04  0.00E+00  0.00E+00  0.00E+00  0.00E+00  1.33E-05  2.23E-04  2.49E-03  0.00000
    412.  24.272  1.33E-05  2.26E-04  0.00E+00  0.00E+00  0.00E+00  0.00E+00  1.33E-05  2.26E-04  2.51E-03  0.00000
    414.  24.155  1.34E-05  2.29E-04  0.00E+00  0.00E+00  0.00E+00  0.00E+00  1.34E-05  2.29E-04  2.54E-03  0.00000
    416.  24.038  1.34E-05  2.32E-04  0.00E+00  0.00E+00  0.00E+00  0.00E+00  1.34E-05  2.32E-04  2.57E-03  0.00000
    418.  23.923  1.35E-05  2.36E-04  0.00E+00  0.00E+00  0.00E+00  0.00E+00  1.35E-05  2.36E-04  2.60E-03  0.00000
    420.  23.810  1.35E-05  2.38E-04  0.00E+00  0.00E+00  0.00E+00  0.00E+00  1.35E-05  2.38E-04  2.62E-03  0.00000
    422.  23.697  1.36E-05  2.41E-04  0.00E+00  0.00E+00  0.00E+00  0.00E+00  1.36E-05  2.41E-04  2.65E-03  0.00000
    424.  23.585  1.36E-05  2.45E-04  0.00E+00  0.00E+00  0.00E+00  0.00E+00  1.36E-05  2.45E-04  2.68E-03  0.00000
    426.  23.474  1.36E-05  2.48E-04  0.00E+00  0.00E+00  0.00E+00  0.00E+00  1.36E-05  2.48E-04  2.70E-03  0.00000
    428.  23.364  1.37E-05  2.50E-04  0.00E+00  0.00E+00  0.00E+00  0.00E+00  1.37E-05  2.50E-04  2.73E-03  0.00000
    430.  23.256  1.37E-05  2.53E-04  0.00E+00  0.00E+00  0.00E+00  0.00E+00  1.37E-05  2.53E-04  2.76E-03  0.00000
    432.  23.148  1.37E-05  2.57E-04  0.00E+00  0.00E+00  0.00E+00  0.00E+00  1.37E-05  2.57E-04  2.79E-03  0.00000
    434.  23.041  1.38E-05  2.60E-04  0.00E+00  0.00E+00  0.00E+00  0.00E+00  1.38E-05  2.60E-04  2.81E-03  0.00000
    436.  22.936  1.38E-05  2.63E-04  0.00E+00  0.00E+00  0.00E+00  0.00E+00  1.38E-05  2.63E-04  2.84E-03  0.00000
    438.  22.831  1.39E-05  2.66E-04  0.00E+00  0.00E+00  0.00E+00  0.00E+00  1.39E-05  2.66E-04  2.87E-03  0.00000
    440.  22.727  1.39E-05  2.69E-04  0.00E+00  0.00E+00  0.00E+00  0.00E+00  1.39E-05  2.69E-04  2.90E-03  0.00000
    442.  22.624  1.40E-05  2.73E-04  0.00E+00  0.00E+00  0.00E+00  0.00E+00  1.40E-05  2.73E-04  2.92E-03  0.00000
    444.  22.523  1.40E-05  2.76E-04  0.00E+00  0.00E+00  0.00E+00  0.00E+00  1.40E-05  2.76E-04  2.95E-03  0.00000
    446.  22.422  1.40E-05  2.79E-04  0.00E+00  0.00E+00  0.00E+00  0.00E+00  1.40E-05  2.79E-04  2.98E-03  0.00000
    448.  22.321  1.40E-05  2.82E-04  0.00E+00  0.00E+00  0.00E+00  0.00E+00  1.40E-05  2.82E-04  3.01E-03  0.00000
    450.  22.222  1.41E-05  2.85E-04  0.00E+00  0.00E+00  0.00E+00  0.00E+00  1.41E-05  2.85E-04  3.04E-03  0.00000
    452.  22.124  1.41E-05  2.89E-04  0.00E+00  0.00E+00  0.00E+00  0.00E+00  1.41E-05  2.89E-04  3.07E-03  0.00000
    454.  22.026  1.41E-05  2.92E-04  0.00E+00  0.00E+00  0.00E+00  0.00E+00  1.41E-05  2.92E-04  3.09E-03  0.00000
    456.  21.930  1.42E-05  2.95E-04  0.00E+00  0.00E+00  0.00E+00  0.00E+00  1.42E-05  2.95E-04  3.12E-03  0.00000
    458.  21.834  1.42E-05  2.99E-04  0.00E+00  0.00E+00  0.00E+00  0.00E+00  1.42E-05  2.99E-04  3.15E-03  0.00000
    460.  21.739  1.43E-05  3.02E-04  0.00E+00  0.00E+00  0.00E+00  0.00E+00  1.43E-05  3.02E-04  3.18E-03  0.00000
    462.  21.645  1.43E-05  3.04E-04  0.00E+00  0.00E+00  0.00E+00  0.00E+00  1.43E-05  3.04E-04  3.21E-03  0.00000
    464.  21.552  1.43E-05  3.07E-04  0.00E+00  0.00E+00  0.00E+00  0.00E+00  1.43E-05  3.07E-04  3.24E-03  0.00000
    466.  21.459  1.43E-05  3.11E-04  0.00E+00  0.00E+00  0.00E+00  0.00E+00  1.43E-05  3.11E-04  3.26E-03  0.00000
    468.  21.368  1.44E-05  3.15E-04  0.00E+00  0.00E+00  0.00E+00  0.00E+00  1.44E-05  3.15E-04  3.29E-03  0.00000
    470.  21.277  1.44E-05  3.18E-04  0.00E+00  0.00E+00  0.00E+00  0.00E+00  1.44E-05  3.18E-04  3.32E-03  0.00000
    472.  21.186  1.45E-05  3.22E-04  0.00E+00  0.00E+00  0.00E+00  0.00E+00  1.45E-05  3.22E-04  3.35E-03  0.00000
    474.  21.097  1.45E-05  3.25E-04  0.00E+00  0.00E+00  0.00E+00  0.00E+00  1.45E-05  3.25E-04  3.38E-03  0.00000
    476.  21.008  1.44E-05  3.27E-04  0.00E+00  0.00E+00  0.00E+00  0.00E+00  1.44E-05  3.27E-04  3.41E-03  0.00000
    478.  20.921  1.44E-05  3.30E-04  0.00E+00  0.00E+00  0.00E+00  0.00E+00  1.44E-05  3.30E-04  3.44E-03  0.00000
    480.  20.833  1.45E-05  3.33E-04  0.00E+00  0.00E+00  0.00E+00  0.00E+00  1.45E-05  3.33E-04  3.47E-03  0.00000
    482.  20.747  1.45E-05  3.38E-04  0.00E+00  0.00E+00  0.00E+00  0.00E+00  1.45E-05  3.38E-04  3.50E-03  0.00000
    484.  20.661  1.46E-05  3.41E-04  0.00E+00  0.00E+00  0.00E+00  0.00E+00  1.46E-05  3.41E-04  3.52E-03  0.00000
    486.  20.576  1.46E-05  3.44E-04  0.00E+00  0.00E+00  0.00E+00  0.00E+00  1.46E-05  3.44E-04  3.55E-03  0.00000
    488.  20.492  1.46E-05  3.47E-04  0.00E+00  0.00E+00  0.00E+00  0.00E+00  1.46E-05  3.47E-04  3.58E-03  0.00000
    490.  20.408  1.46E-05  3.50E-04  0.00E+00  0.00E+00  0.00E+00  0.00E+00  1.46E-05  3.50E-04  3.61E-03  0.00000
    492.  20.325  1.47E-05  3.55E-04  0.00E+00  0.00E+00  0.00E+00  0.00E+00  1.47E-05  3.55E-04  3.64E-03  0.00000
    494.  20.243  1.47E-05  3.58E-04  0.00E+00  0.00E+00  0.00E+00  0.00E+00  1.47E-05  3.58E-04  3.67E-03  0.00000
    496.  20.161  1.46E-05  3.60E-04  0.00E+00  0.00E+00  0.00E+00  0.00E+00  1.46E-05  3.60E-04  3.70E-03  0.00001
    498.  20.080  1.46E-05  3.63E-04  0.00E+00  0.00E+00  0.00E+00  0.00E+00  1.46E-05  3.63E-04  3.73E-03  0.00001
1                                             RADIANCE(WATTS/CM2-STER-XXX)
0  FREQ   WAVLEN    PATH THERMAL      SURFACE EMISSION    SURFACE REFLECTED     TOTAL RADIANCE   INTEGRAL    TOTAL
  (CM-1) (MICRN)    (CM-1)   (MICRN)    (CM-1)   (MICRN)    (CM-1)   (MICRN)    (CM-1)   (MICRN)    (CM-1)   TRANS

    500.  20.000  1.47E-05  3.68E-04  0.00E+00  0.00E+00  0.00E+00  0.00E+00  1.47E-05  3.68E-04  3.76E-03  0.00000
    502.  19.920  1.48E-05  3.73E-04  0.00E+00  0.00E+00  0.00E+00  0.00E+00  1.48E-05  3.73E-04  3.79E-03  0.00000
    504.  19.841  1.48E-05  3.76E-04  0.00E+00  0.00E+00  0.00E+00  0.00E+00  1.48E-05  3.76E-04  3.82E-03  0.00000
    506.  19.763  1.48E-05  3.80E-04  0.00E+00  0.00E+00  0.00E+00  0.00E+00  1.48E-05  3.80E-04  3.85E-03  0.00000
    508.  19.685  1.48E-05  3.82E-04  0.00E+00  0.00E+00  0.00E+00  0.00E+00  1.48E-05  3.82E-04  3.88E-03  0.00000
    510.  19.608  1.48E-05  3.85E-04  0.00E+00  0.00E+00  0.00E+00  0.00E+00  1.48E-05  3.85E-04  3.91E-03  0.00000
    512.  19.531  1.48E-05  3.88E-04  0.00E+00  0.00E+00  0.00E+00  0.00E+00  1.48E-05  3.88E-04  3.94E-03  0.00000
    514.  19.455  1.48E-05  3.92E-04  0.00E+00  0.00E+00  0.00E+00  0.00E+00  1.48E-05  3.92E-04  3.97E-03  0.00000
    516.  19.380  1.49E-05  3.97E-04  0.00E+00  0.00E+00  0.00E+00  0.00E+00  1.49E-05  3.97E-04  4.00E-03  0.00000
    518.  19.305  1.49E-05  4.01E-04  0.00E+00  0.00E+00  0.00E+00  0.00E+00  1.49E-05  4.01E-04  4.03E-03  0.00000
    520.  19.231  1.49E-05  4.04E-04  0.00E+00  0.00E+00  0.00E+00  0.00E+00  1.49E-05  4.04E-04  4.06E-03  0.00000
    522.  19.157  1.49E-05  4.06E-04  0.00E+00  0.00E+00  0.00E+00  0.00E+00  1.49E-05  4.06E-04  4.09E-03  0.00000
    524.  19.084  1.49E-05  4.10E-04  0.00E+00  0.00E+00  0.00E+00  0.00E+00  1.49E-05  4.10E-04  4.12E-03  0.00000
    526.  19.011  1.50E-05  4.14E-04  0.00E+00  0.00E+00  0.00E+00  0.00E+00  1.50E-05  4.14E-04  4.15E-03  0.00000
    528.  18.939  1.49E-05  4.16E-04  0.00E+00  0.00E+00  0.00E+00  0.00E+00  1.49E-05  4.16E-04  4.18E-03  0.00001
    530.  18.868  1.49E-05  4.18E-04  0.00E+00  0.00E+00  0.00E+00  0.00E+00  1.49E-05  4.18E-04  4.21E-03  0.00021
    532.  18.797  1.49E-05  4.21E-04  0.00E+00  0.00E+00  0.00E+00  0.00E+00  1.49E-05  4.21E-04  4.23E-03  0.00036
    534.  18.727  1.49E-05  4.26E-04  0.00E+00  0.00E+00  0.00E+00  0.00E+00  1.49E-05  4.26E-04  4.26E-03  0.00006
    536.  18.657  1.50E-05  4.30E-04  0.00E+00  0.00E+00  0.00E+00  0.00E+00  1.50E-05  4.30E-04  4.29E-03  0.00001
    538.  18.587  1.49E-05  4.32E-04  0.00E+00  0.00E+00  0.00E+00  0.00E+00  1.49E-05  4.32E-04  4.32E-03  0.00024
    540.  18.519  1.49E-05  4.36E-04  0.00E+00  0.00E+00  0.00E+00  0.00E+00  1.49E-05  4.36E-04  4.35E-03  0.00025
    542.  18.450  1.50E-05  4.40E-04  0.00E+00  0.00E+00  0.00E+00  0.00E+00  1.50E-05  4.40E-04  4.38E-03  0.00009
    544.  18.382  1.50E-05  4.44E-04  0.00E+00  0.00E+00  0.00E+00  0.00E+00  1.50E-05  4.44E-04  4.41E-03  0.00007
    546.  18.315  1.51E-05  4.50E-04  0.00E+00  0.00E+00  0.00E+00  0.00E+00  1.51E-05  4.50E-04  4.44E-03  0.00000
    548.  18.248  1.51E-05  4.52E-04  0.00E+00  0.00E+00  0.00E+00  0.00E+00  1.51E-05  4.52E-04  4.47E-03  0.00001
    550.  18.182  1.50E-05  4.55E-04  0.00E+00  0.00E+00  0.00E+00  0.00E+00  1.50E-05  4.55E-04  4.50E-03  0.00001
    552.  18.116  1.50E-05  4.57E-04  0.00E+00  0.00E+00  0.00E+00  0.00E+00  1.50E-05  4.57E-04  4.53E-03  0.00034
    554.  18.051  1.50E-05  4.61E-04  0.00E+00  0.00E+00  0.00E+00  0.00E+00  1.50E-05  4.61E-04  4.56E-03  0.00019
    556.  17.986  1.50E-05  4.64E-04  0.00E+00  0.00E+00  0.00E+00  0.00E+00  1.50E-05  4.64E-04  4.59E-03  0.00037
    558.  17.921  1.50E-05  4.66E-04  0.00E+00  0.00E+00  0.00E+00  0.00E+00  1.50E-05  4.66E-04  4.62E-03  0.00094
    560.  17.857  1.49E-05  4.68E-04  0.00E+00  0.00E+00  0.00E+00  0.00E+00  1.49E-05  4.68E-04  4.65E-03  0.00204
    562.  17.794  1.50E-05  4.73E-04  0.00E+00  0.00E+00  0.00E+00  0.00E+00  1.50E-05  4.73E-04  4.68E-03  0.00138
    564.  17.730  1.50E-05  4.78E-04  0.00E+00  0.00E+00  0.00E+00  0.00E+00  1.50E-05  4.78E-04  4.71E-03  0.00017
    566.  17.668  1.50E-05  4.82E-04  0.00E+00  0.00E+00  0.00E+00  0.00E+00  1.50E-05  4.82E-04  4.74E-03  0.00017
    568.  17.606  1.51E-05  4.88E-04  0.00E+00  0.00E+00  0.00E+00  0.00E+00  1.51E-05  4.88E-04  4.77E-03  0.00000
    570.  17.544  1.51E-05  4.92E-04  0.00E+00  0.00E+00  0.00E+00  0.00E+00  1.51E-05  4.92E-04  4.81E-03  0.00000
    572.  17.483  1.50E-05  4.92E-04  0.00E+00  0.00E+00  0.00E+00  0.00E+00  1.50E-05  4.92E-04  4.84E-03  0.00026
    574.  17.422  1.50E-05  4.94E-04  0.00E+00  0.00E+00  0.00E+00  0.00E+00  1.50E-05  4.94E-04  4.87E-03  0.00071
    576.  17.361  1.51E-05  5.02E-04  0.00E+00  0.00E+00  0.00E+00  0.00E+00  1.51E-05  5.02E-04  4.90E-03  0.00000
    578.  17.301  1.51E-05  5.03E-04  0.00E+00  0.00E+00  0.00E+00  0.00E+00  1.51E-05  5.03E-04  4.93E-03  0.00018
    580.  17.241  1.51E-05  5.09E-04  0.00E+00  0.00E+00  0.00E+00  0.00E+00  1.51E-05  5.09E-04  4.96E-03  0.00009
    582.  17.182  1.51E-05  5.12E-04  0.00E+00  0.00E+00  0.00E+00  0.00E+00  1.51E-05  5.12E-04  4.99E-03  0.00009
    584.  17.123  1.51E-05  5.14E-04  0.00E+00  0.00E+00  0.00E+00  0.00E+00  1.51E-05  5.14E-04  5.02E-03  0.00010
    586.  17.065  1.50E-05  5.16E-04  0.00E+00  0.00E+00  0.00E+00  0.00E+00  1.50E-05  5.16E-04  5.05E-03  0.00049
    588.  17.007  1.50E-05  5.17E-04  0.00E+00  0.00E+00  0.00E+00  0.00E+00  1.50E-05  5.17E-04  5.08E-03  0.00166
    590.  16.949  1.51E-05  5.25E-04  0.00E+00  0.00E+00  0.00E+00  0.00E+00  1.51E-05  5.25E-04  5.11E-03  0.00003
    592.  16.892  1.52E-05  5.32E-04  0.00E+00  0.00E+00  0.00E+00  0.00E+00  1.52E-05  5.32E-04  5.14E-03  0.00000
    594.  16.835  1.51E-05  5.34E-04  0.00E+00  0.00E+00  0.00E+00  0.00E+00  1.51E-05  5.34E-04  5.17E-03  0.00000
    596.  16.779  1.50E-05  5.34E-04  0.00E+00  0.00E+00  0.00E+00  0.00E+00  1.50E-05  5.34E-04  5.20E-03  0.00009
    598.  16.722  1.50E-05  5.37E-04  0.00E+00  0.00E+00  0.00E+00  0.00E+00  1.50E-05  5.37E-04  5.23E-03  0.00033
1                                             RADIANCE(WATTS/CM2-STER-XXX)
0  FREQ   WAVLEN    PATH THERMAL      SURFACE EMISSION    SURFACE REFLECTED     TOTAL RADIANCE   INTEGRAL    TOTAL
  (CM-1) (MICRN)    (CM-1)   (MICRN)    (CM-1)   (MICRN)    (CM-1)   (MICRN)    (CM-1)   (MICRN)    (CM-1)   TRANS

    600.  16.667  1.51E-05  5.42E-04  0.00E+00  0.00E+00  0.00E+00  0.00E+00  1.51E-05  5.42E-04  5.26E-03  0.00016
    602.  16.611  1.50E-05  5.44E-04  0.00E+00  0.00E+00  0.00E+00  0.00E+00  1.50E-05  5.44E-04  5.29E-03  0.00053
    604.  16.556  1.50E-05  5.48E-04  0.00E+00  0.00E+00  0.00E+00  0.00E+00  1.50E-05  5.48E-04  5.32E-03  0.00027
    606.  16.502  1.49E-05  5.49E-04  0.00E+00  0.00E+00  0.00E+00  0.00E+00  1.49E-05  5.49E-04  5.35E-03  0.00084
    608.  16.447  1.49E-05  5.52E-04  0.00E+00  0.00E+00  0.00E+00  0.00E+00  1.49E-05  5.52E-04  5.38E-03  0.00103
    610.  16.393  1.49E-05  5.55E-04  0.00E+00  0.00E+00  0.00E+00  0.00E+00  1.49E-05  5.55E-04  5.41E-03  0.00120
    612.  16.340  1.49E-05  5.59E-04  0.00E+00  0.00E+00  0.00E+00  0.00E+00  1.49E-05  5.59E-04  5.44E-03  0.00080
    614.  16.287  1.50E-05  5.65E-04  0.00E+00  0.00E+00  0.00E+00  0.00E+00  1.50E-05  5.65E-04  5.47E-03  0.00017
    616.  16.234  1.51E-05  5.73E-04  0.00E+00  0.00E+00  0.00E+00  0.00E+00  1.51E-05  5.73E-04  5.50E-03  0.00000
    618.  16.181  1.51E-05  5.77E-04  0.00E+00  0.00E+00  0.00E+00  0.00E+00  1.51E-05  5.77E-04  5.53E-03  0.00000
    620.  16.129  1.50E-05  5.76E-04  0.00E+00  0.00E+00  0.00E+00  0.00E+00  1.50E-05  5.76E-04  5.56E-03  0.00004
    622.  16.077  1.49E-05  5.78E-04  0.00E+00  0.00E+00  0.00E+00  0.00E+00  1.49E-05  5.78E-04  5.59E-03  0.00029
    624.  16.026  1.50E-05  5.83E-04  0.00E+00  0.00E+00  0.00E+00  0.00E+00  1.50E-05  5.83E-04  5.62E-03  0.00013
    626.  15.974  1.50E-05  5.89E-04  0.00E+00  0.00E+00  0.00E+00  0.00E+00  1.50E-05  5.89E-04  5.65E-03  0.00000
    628.  15.924  1.50E-05  5.90E-04  0.00E+00  0.00E+00  0.00E+00  0.00E+00  1.50E-05  5.90E-04  5.68E-03  0.00002
    630.  15.873  1.50E-05  5.94E-04  0.00E+00  0.00E+00  0.00E+00  0.00E+00  1.50E-05  5.94E-04  5.71E-03  0.00001
    632.  15.823  1.50E-05  5.98E-04  0.00E+00  0.00E+00  0.00E+00  0.00E+00  1.50E-05  5.98E-04  5.74E-03  0.00000
    634.  15.773  1.50E-05  6.03E-04  0.00E+00  0.00E+00  0.00E+00  0.00E+00  1.50E-05  6.03E-04  5.77E-03  0.00000
    636.  15.723  1.50E-05  6.07E-04  0.00E+00  0.00E+00  0.00E+00  0.00E+00  1.50E-05  6.07E-04  5.80E-03  0.00000
    638.  15.674  1.50E-05  6.11E-04  0.00E+00  0.00E+00  0.00E+00  0.00E+00  1.50E-05  6.11E-04  5.83E-03  0.00000
    640.  15.625  1.50E-05  6.14E-04  0.00E+00  0.00E+00  0.00E+00  0.00E+00  1.50E-05  6.14E-04  5.86E-03  0.00000
    642.  15.576  1.50E-05  6.18E-04  0.00E+00  0.00E+00  0.00E+00  0.00E+00  1.50E-05  6.18E-04  5.89E-03  0.00000
    644.  15.528  1.50E-05  6.22E-04  0.00E+00  0.00E+00  0.00E+00  0.00E+00  1.50E-05  6.22E-04  5.92E-03  0.00000
    646.  15.480  1.50E-05  6.26E-04  0.00E+00  0.00E+00  0.00E+00  0.00E+00  1.50E-05  6.26E-04  5.95E-03  0.00000
    648.  15.432  1.50E-05  6.31E-04  0.00E+00  0.00E+00  0.00E+00  0.00E+00  1.50E-05  6.31E-04  5.98E-03  0.00000
    650.  15.385  1.50E-05  6.34E-04  0.00E+00  0.00E+00  0.00E+00  0.00E+00  1.50E-05  6.34E-04  6.01E-03  0.00000
    652.  15.337  1.50E-05  6.37E-04  0.00E+00  0.00E+00  0.00E+00  0.00E+00  1.50E-05  6.37E-04  6.04E-03  0.00000
    654.  15.291  1.50E-05  6.40E-04  0.00E+00  0.00E+00  0.00E+00  0.00E+00  1.50E-05  6.40E-04  6.07E-03  0.00000
    656.  15.244  1.49E-05  6.43E-04  0.00E+00  0.00E+00  0.00E+00  0.00E+00  1.49E-05  6.43E-04  6.10E-03  0.00000
    658.  15.198  1.49E-05  6.47E-04  0.00E+00  0.00E+00  0.00E+00  0.00E+00  1.49E-05  6.47E-04  6.13E-03  0.00000
    660.  15.152  1.49E-05  6.50E-04  0.00E+00  0.00E+00  0.00E+00  0.00E+00  1.49E-05  6.50E-04  6.16E-03  0.00000
    662.  15.106  1.49E-05  6.54E-04  0.00E+00  0.00E+00  0.00E+00  0.00E+00  1.49E-05  6.54E-04  6.19E-03  0.00000
    664.  15.060  1.49E-05  6.57E-04  0.00E+00  0.00E+00  0.00E+00  0.00E+00  1.49E-05  6.57E-04  6.22E-03  0.00000
    666.  15.015  1.49E-05  6.62E-04  0.00E+00  0.00E+00  0.00E+00  0.00E+00  1.49E-05  6.62E-04  6.25E-03  0.00000
    668.  14.970  1.49E-05  6.66E-04  0.00E+00  0.00E+00  0.00E+00  0.00E+00  1.49E-05  6.66E-04  6.28E-03  0.00000
    670.  14.925  1.49E-05  6.69E-04  0.00E+00  0.00E+00  0.00E+00  0.00E+00  1.49E-05  6.69E-04  6.31E-03  0.00000
    672.  14.881  1.49E-05  6.71E-04  0.00E+00  0.00E+00  0.00E+00  0.00E+00  1.49E-05  6.71E-04  6.34E-03  0.00000
    674.  14.837  1.48E-05  6.73E-04  0.00E+00  0.00E+00  0.00E+00  0.00E+00  1.48E-05  6.73E-04  6.36E-03  0.00000
    676.  14.793  1.48E-05  6.77E-04  0.00E+00  0.00E+00  0.00E+00  0.00E+00  1.48E-05  6.77E-04  6.39E-03  0.00000
    678.  14.749  1.48E-05  6.80E-04  0.00E+00  0.00E+00  0.00E+00  0.00E+00  1.48E-05  6.80E-04  6.42E-03  0.00000
    680.  14.706  1.48E-05  6.84E-04  0.00E+00  0.00E+00  0.00E+00  0.00E+00  1.48E-05  6.84E-04  6.45E-03  0.00000
    682.  14.663  1.48E-05  6.86E-04  0.00E+00  0.00E+00  0.00E+00  0.00E+00  1.48E-05  6.86E-04  6.48E-03  0.00000
    684.  14.620  1.47E-05  6.89E-04  0.00E+00  0.00E+00  0.00E+00  0.00E+00  1.47E-05  6.89E-04  6.51E-03  0.00000
    686.  14.577  1.47E-05  6.92E-04  0.00E+00  0.00E+00  0.00E+00  0.00E+00  1.47E-05  6.92E-04  6.54E-03  0.00000
    688.  14.535  1.47E-05  6.96E-04  0.00E+00  0.00E+00  0.00E+00  0.00E+00  1.47E-05  6.96E-04  6.57E-03  0.00000
    690.  14.493  1.47E-05  6.98E-04  0.00E+00  0.00E+00  0.00E+00  0.00E+00  1.47E-05  6.98E-04  6.60E-03  0.00000
    692.  14.451  1.46E-05  7.00E-04  0.00E+00  0.00E+00  0.00E+00  0.00E+00  1.46E-05  7.00E-04  6.63E-03  0.00000
    694.  14.409  1.46E-05  7.03E-04  0.00E+00  0.00E+00  0.00E+00  0.00E+00  1.46E-05  7.03E-04  6.66E-03  0.00000
    696.  14.368  1.46E-05  7.06E-04  0.00E+00  0.00E+00  0.00E+00  0.00E+00  1.46E-05  7.06E-04  6.69E-03  0.00000
    698.  14.327  1.45E-05  7.08E-04  0.00E+00  0.00E+00  0.00E+00  0.00E+00  1.45E-05  7.08E-04  6.72E-03  0.00000
1                                             RADIANCE(WATTS/CM2-STER-XXX)
0  FREQ   WAVLEN    PATH THERMAL      SURFACE EMISSION    SURFACE REFLECTED     TOTAL RADIANCE   INTEGRAL    TOTAL
  (CM-1) (MICRN)    (CM-1)   (MICRN)    (CM-1)   (MICRN)    (CM-1)   (MICRN)    (CM-1)   (MICRN)    (CM-1)   TRANS

    700.  14.286  1.45E-05  7.09E-04  0.00E+00  0.00E+00  0.00E+00  0.00E+00  1.45E-05  7.09E-04  6.75E-03  0.00000
    702.  14.245  1.44E-05  7.12E-04  0.00E+00  0.00E+00  0.00E+00  0.00E+00  1.44E-05  7.12E-04  6.77E-03  0.00000
    704.  14.205  1.44E-05  7.15E-04  0.00E+00  0.00E+00  0.00E+00  0.00E+00  1.44E-05  7.15E-04  6.80E-03  0.00000
    706.  14.164  1.44E-05  7.18E-04  0.00E+00  0.00E+00  0.00E+00  0.00E+00  1.44E-05  7.18E-04  6.83E-03  0.00000
    708.  14.124  1.43E-05  7.18E-04  0.00E+00  0.00E+00  0.00E+00  0.00E+00  1.43E-05  7.18E-04  6.86E-03  0.00005
    710.  14.085  1.42E-05  7.18E-04  0.00E+00  0.00E+00  0.00E+00  0.00E+00  1.42E-05  7.18E-04  6.89E-03  0.00040
    712.  14.045  1.42E-05  7.19E-04  0.00E+00  0.00E+00  0.00E+00  0.00E+00  1.42E-05  7.19E-04  6.92E-03  0.00096
    714.  14.006  1.42E-05  7.24E-04  0.00E+00  0.00E+00  0.00E+00  0.00E+00  1.42E-05  7.24E-04  6.95E-03  0.00058
    716.  13.966  1.40E-05  7.17E-04  0.00E+00  0.00E+00  0.00E+00  0.00E+00  1.40E-05  7.17E-04  6.97E-03  0.00332
    718.  13.928  1.41E-05  7.28E-04  0.00E+00  0.00E+00  0.00E+00  0.00E+00  1.41E-05  7.28E-04  7.00E-03  0.00086
    720.  13.889  1.43E-05  7.42E-04  0.00E+00  0.00E+00  0.00E+00  0.00E+00  1.43E-05  7.42E-04  7.03E-03  0.00000
    722.  13.850  1.38E-05  7.21E-04  0.00E+00  0.00E+00  0.00E+00  0.00E+00  1.38E-05  7.21E-04  7.06E-03  0.00675
    724.  13.812  1.35E-05  7.07E-04  0.00E+00  0.00E+00  0.00E+00  0.00E+00  1.35E-05  7.07E-04  7.09E-03  0.01610
    726.  13.774  1.31E-05  6.91E-04  0.00E+00  0.00E+00  0.00E+00  0.00E+00  1.31E-05  6.91E-04  7.11E-03  0.03733
    728.  13.736  1.34E-05  7.12E-04  0.00E+00  0.00E+00  0.00E+00  0.00E+00  1.34E-05  7.12E-04  7.14E-03  0.01971
    730.  13.699  1.39E-05  7.39E-04  0.00E+00  0.00E+00  0.00E+00  0.00E+00  1.39E-05  7.39E-04  7.17E-03  0.00372
    732.  13.661  1.37E-05  7.33E-04  0.00E+00  0.00E+00  0.00E+00  0.00E+00  1.37E-05  7.33E-04  7.19E-03  0.00950
    734.  13.624  1.33E-05  7.17E-04  0.00E+00  0.00E+00  0.00E+00  0.00E+00  1.33E-05  7.17E-04  7.22E-03  0.02043
    736.  13.587  1.34E-05  7.24E-04  0.00E+00  0.00E+00  0.00E+00  0.00E+00  1.34E-05  7.24E-04  7.25E-03  0.01826
    738.  13.550  1.34E-05  7.32E-04  0.00E+00  0.00E+00  0.00E+00  0.00E+00  1.34E-05  7.32E-04  7.27E-03  0.01446
    740.  13.514  1.36E-05  7.47E-04  0.00E+00  0.00E+00  0.00E+00  0.00E+00  1.36E-05  7.47E-04  7.30E-03  0.00642
    742.  13.477  1.36E-05  7.51E-04  0.00E+00  0.00E+00  0.00E+00  0.00E+00  1.36E-05  7.51E-04  7.33E-03  0.01032
    744.  13.441  1.34E-05  7.39E-04  0.00E+00  0.00E+00  0.00E+00  0.00E+00  1.34E-05  7.39E-04  7.36E-03  0.01909
    746.  13.405  1.26E-05  7.00E-04  0.00E+00  0.00E+00  0.00E+00  0.00E+00  1.26E-05  7.00E-04  7.38E-03  0.05933
    748.  13.369  1.29E-05  7.22E-04  0.00E+00  0.00E+00  0.00E+00  0.00E+00  1.29E-05  7.22E-04  7.41E-03  0.04155
    750.  13.333  1.24E-05  6.98E-04  0.00E+00  0.00E+00  0.00E+00  0.00E+00  1.24E-05  6.98E-04  7.43E-03  0.06439
    752.  13.298  1.24E-05  6.99E-04  0.00E+00  0.00E+00  0.00E+00  0.00E+00  1.24E-05  6.99E-04  7.46E-03  0.06979
    754.  13.263  1.30E-05  7.36E-04  0.00E+00  0.00E+00  0.00E+00  0.00E+00  1.30E-05  7.36E-04  7.48E-03  0.03449
    756.  13.228  1.25E-05  7.14E-04  0.00E+00  0.00E+00  0.00E+00  0.00E+00  1.25E-05  7.14E-04  7.51E-03  0.05620
    758.  13.193  1.09E-05  6.28E-04  0.00E+00  0.00E+00  0.00E+00  0.00E+00  1.09E-05  6.28E-04  7.53E-03  0.15698
    760.  13.158  1.10E-05  6.34E-04  0.00E+00  0.00E+00  0.00E+00  0.00E+00  1.10E-05  6.34E-04  7.55E-03  0.15533
    762.  13.123  1.05E-05  6.11E-04  0.00E+00  0.00E+00  0.00E+00  0.00E+00  1.05E-05  6.11E-04  7.57E-03  0.18578
    764.  13.089  9.88E-06  5.77E-04  0.00E+00  0.00E+00  0.00E+00  0.00E+00  9.88E-06  5.77E-04  7.59E-03  0.23348
    766.  13.055  1.01E-05  5.91E-04  0.00E+00  0.00E+00  0.00E+00  0.00E+00  1.01E-05  5.91E-04  7.61E-03  0.21769
    768.  13.021  1.05E-05  6.17E-04  0.00E+00  0.00E+00  0.00E+00  0.00E+00  1.05E-05  6.17E-04  7.63E-03  0.19195
    770.  12.987  1.09E-05  6.48E-04  0.00E+00  0.00E+00  0.00E+00  0.00E+00  1.09E-05  6.48E-04  7.65E-03  0.15985
    772.  12.953  9.45E-06  5.63E-04  0.00E+00  0.00E+00  0.00E+00  0.00E+00  9.45E-06  5.63E-04  7.67E-03  0.26264
    774.  12.920  9.59E-06  5.75E-04  0.00E+00  0.00E+00  0.00E+00  0.00E+00  9.59E-06  5.75E-04  7.69E-03  0.25080
    776.  12.887  1.17E-05  7.04E-04  0.00E+00  0.00E+00  0.00E+00  0.00E+00  1.17E-05  7.04E-04  7.72E-03  0.10489
    778.  12.853  1.06E-05  6.39E-04  0.00E+00  0.00E+00  0.00E+00  0.00E+00  1.06E-05  6.39E-04  7.74E-03  0.18302
    780.  12.821  9.72E-06  5.92E-04  0.00E+00  0.00E+00  0.00E+00  0.00E+00  9.72E-06  5.92E-04  7.76E-03  0.23988
    782.  12.788  9.12E-06  5.58E-04  0.00E+00  0.00E+00  0.00E+00  0.00E+00  9.12E-06  5.58E-04  7.77E-03  0.28091
    784.  12.755  1.14E-05  7.00E-04  0.00E+00  0.00E+00  0.00E+00  0.00E+00  1.14E-05  7.00E-04  7.80E-03  0.11935
    786.  12.723  9.40E-06  5.81E-04  0.00E+00  0.00E+00  0.00E+00  0.00E+00  9.40E-06  5.81E-04  7.82E-03  0.25845
    788.  12.690  8.63E-06  5.36E-04  0.00E+00  0.00E+00  0.00E+00  0.00E+00  8.63E-06  5.36E-04  7.83E-03  0.31539
    790.  12.658  8.63E-06  5.38E-04  0.00E+00  0.00E+00  0.00E+00  0.00E+00  8.63E-06  5.38E-04  7.85E-03  0.31184
    792.  12.626  1.03E-05  6.45E-04  0.00E+00  0.00E+00  0.00E+00  0.00E+00  1.03E-05  6.45E-04  7.87E-03  0.17281
    794.  12.594  1.09E-05  6.90E-04  0.00E+00  0.00E+00  0.00E+00  0.00E+00  1.09E-05  6.90E-04  7.89E-03  0.13864
    796.  12.563  1.13E-05  7.13E-04  0.00E+00  0.00E+00  0.00E+00  0.00E+00  1.13E-05  7.13E-04  7.92E-03  0.11667
    798.  12.531  1.15E-05  7.33E-04  0.00E+00  0.00E+00  0.00E+00  0.00E+00  1.15E-05  7.33E-04  7.94E-03  0.09703
1                                             RADIANCE(WATTS/CM2-STER-XXX)
0  FREQ   WAVLEN    PATH THERMAL      SURFACE EMISSION    SURFACE REFLECTED     TOTAL RADIANCE   INTEGRAL    TOTAL
  (CM-1) (MICRN)    (CM-1)   (MICRN)    (CM-1)   (MICRN)    (CM-1)   (MICRN)    (CM-1)   (MICRN)    (CM-1)   TRANS

    800.  12.500  9.89E-06  6.33E-04  0.00E+00  0.00E+00  0.00E+00  0.00E+00  9.89E-06  6.33E-04  7.96E-03  0.21497
    802.  12.469  9.19E-06  5.91E-04  0.00E+00  0.00E+00  0.00E+00  0.00E+00  9.19E-06  5.91E-04  7.98E-03  0.26124
    804.  12.438  1.03E-05  6.66E-04  0.00E+00  0.00E+00  0.00E+00  0.00E+00  1.03E-05  6.66E-04  8.00E-03  0.17987
    806.  12.407  8.65E-06  5.62E-04  0.00E+00  0.00E+00  0.00E+00  0.00E+00  8.65E-06  5.62E-04  8.01E-03  0.29883
    808.  12.376  9.91E-06  6.47E-04  0.00E+00  0.00E+00  0.00E+00  0.00E+00  9.91E-06  6.47E-04  8.03E-03  0.20437
    810.  12.346  7.99E-06  5.24E-04  0.00E+00  0.00E+00  0.00E+00  0.00E+00  7.99E-06  5.24E-04  8.05E-03  0.34772
    812.  12.315  7.85E-06  5.18E-04  0.00E+00  0.00E+00  0.00E+00  0.00E+00  7.85E-06  5.18E-04  8.07E-03  0.35679
    814.  12.285  9.81E-06  6.50E-04  0.00E+00  0.00E+00  0.00E+00  0.00E+00  9.81E-06  6.50E-04  8.09E-03  0.20652
    816.  12.255  8.44E-06  5.62E-04  0.00E+00  0.00E+00  0.00E+00  0.00E+00  8.44E-06  5.62E-04  8.10E-03  0.30981
    818.  12.225  7.45E-06  4.98E-04  0.00E+00  0.00E+00  0.00E+00  0.00E+00  7.45E-06  4.98E-04  8.12E-03  0.38561
    820.  12.195  7.36E-06  4.95E-04  0.00E+00  0.00E+00  0.00E+00  0.00E+00  7.36E-06  4.95E-04  8.13E-03  0.39090
    822.  12.165  7.33E-06  4.95E-04  0.00E+00  0.00E+00  0.00E+00  0.00E+00  7.33E-06  4.95E-04  8.15E-03  0.39240
    824.  12.136  7.66E-06  5.20E-04  0.00E+00  0.00E+00  0.00E+00  0.00E+00  7.66E-06  5.20E-04  8.16E-03  0.36496
    826.  12.107  8.06E-06  5.50E-04  0.00E+00  0.00E+00  0.00E+00  0.00E+00  8.06E-06  5.50E-04  8.18E-03  0.33120
    828.  12.077  9.13E-06  6.26E-04  0.00E+00  0.00E+00  0.00E+00  0.00E+00  9.13E-06  6.26E-04  8.20E-03  0.24621
    830.  12.048  7.09E-06  4.88E-04  0.00E+00  0.00E+00  0.00E+00  0.00E+00  7.09E-06  4.88E-04  8.21E-03  0.40615
    832.  12.019  6.97E-06  4.82E-04  0.00E+00  0.00E+00  0.00E+00  0.00E+00  6.97E-06  4.82E-04  8.23E-03  0.41462
    834.  11.990  6.93E-06  4.82E-04  0.00E+00  0.00E+00  0.00E+00  0.00E+00  6.93E-06  4.82E-04  8.24E-03  0.41651
    836.  11.962  7.40E-06  5.17E-04  0.00E+00  0.00E+00  0.00E+00  0.00E+00  7.40E-06  5.17E-04  8.25E-03  0.37636
    838.  11.933  6.98E-06  4.90E-04  0.00E+00  0.00E+00  0.00E+00  0.00E+00  6.98E-06  4.90E-04  8.27E-03  0.40815
    840.  11.905  8.70E-06  6.14E-04  0.00E+00  0.00E+00  0.00E+00  0.00E+00  8.70E-06  6.14E-04  8.29E-03  0.26978
    842.  11.876  7.36E-06  5.22E-04  0.00E+00  0.00E+00  0.00E+00  0.00E+00  7.36E-06  5.22E-04  8.30E-03  0.37265
    844.  11.848  6.66E-06  4.74E-04  0.00E+00  0.00E+00  0.00E+00  0.00E+00  6.66E-06  4.74E-04  8.31E-03  0.42957
    846.  11.820  6.69E-06  4.79E-04  0.00E+00  0.00E+00  0.00E+00  0.00E+00  6.69E-06  4.79E-04  8.33E-03  0.42494
    848.  11.792  6.73E-06  4.84E-04  0.00E+00  0.00E+00  0.00E+00  0.00E+00  6.73E-06  4.84E-04  8.34E-03  0.41923
    850.  11.765  8.20E-06  5.92E-04  0.00E+00  0.00E+00  0.00E+00  0.00E+00  8.20E-06  5.92E-04  8.36E-03  0.29878
    852.  11.737  9.61E-06  6.98E-04  0.00E+00  0.00E+00  0.00E+00  0.00E+00  9.61E-06  6.98E-04  8.38E-03  0.18618
    854.  11.710  8.56E-06  6.24E-04  0.00E+00  0.00E+00  0.00E+00  0.00E+00  8.56E-06  6.24E-04  8.39E-03  0.26631
    856.  11.682  7.21E-06  5.29E-04  0.00E+00  0.00E+00  0.00E+00  0.00E+00  7.21E-06  5.29E-04  8.41E-03  0.37599
    858.  11.655  6.41E-06  4.72E-04  0.00E+00  0.00E+00  0.00E+00  0.00E+00  6.41E-06  4.72E-04  8.42E-03  0.44019
    860.  11.628  6.55E-06  4.84E-04  0.00E+00  0.00E+00  0.00E+00  0.00E+00  6.55E-06  4.84E-04  8.43E-03  0.42733
    862.  11.601  6.14E-06  4.56E-04  0.00E+00  0.00E+00  0.00E+00  0.00E+00  6.14E-06  4.56E-04  8.45E-03  0.46022
    864.  11.574  6.82E-06  5.09E-04  0.00E+00  0.00E+00  0.00E+00  0.00E+00  6.82E-06  5.09E-04  8.46E-03  0.40093
    866.  11.547  6.90E-06  5.17E-04  0.00E+00  0.00E+00  0.00E+00  0.00E+00  6.90E-06  5.17E-04  8.47E-03  0.39289
    868.  11.521  6.00E-06  4.52E-04  0.00E+00  0.00E+00  0.00E+00  0.00E+00  6.00E-06  4.52E-04  8.48E-03  0.46686
    870.  11.494  6.54E-06  4.95E-04  0.00E+00  0.00E+00  0.00E+00  0.00E+00  6.54E-06  4.95E-04  8.50E-03  0.41928
    872.  11.468  6.66E-06  5.07E-04  0.00E+00  0.00E+00  0.00E+00  0.00E+00  6.66E-06  5.07E-04  8.51E-03  0.40662
    874.  11.442  5.86E-06  4.48E-04  0.00E+00  0.00E+00  0.00E+00  0.00E+00  5.86E-06  4.48E-04  8.52E-03  0.47373
    876.  11.416  5.88E-06  4.52E-04  0.00E+00  0.00E+00  0.00E+00  0.00E+00  5.88E-06  4.52E-04  8.53E-03  0.47017
    878.  11.390  6.43E-06  4.96E-04  0.00E+00  0.00E+00  0.00E+00  0.00E+00  6.43E-06  4.96E-04  8.55E-03  0.41988
    880.  11.364  6.49E-06  5.03E-04  0.00E+00  0.00E+00  0.00E+00  0.00E+00  6.49E-06  5.03E-04  8.56E-03  0.41348
    882.  11.338  6.18E-06  4.81E-04  0.00E+00  0.00E+00  0.00E+00  0.00E+00  6.18E-06  4.81E-04  8.57E-03  0.43843
    884.  11.312  6.88E-06  5.37E-04  0.00E+00  0.00E+00  0.00E+00  0.00E+00  6.88E-06  5.37E-04  8.59E-03  0.37683
    886.  11.287  6.33E-06  4.97E-04  0.00E+00  0.00E+00  0.00E+00  0.00E+00  6.33E-06  4.97E-04  8.60E-03  0.42287
    888.  11.261  6.82E-06  5.38E-04  0.00E+00  0.00E+00  0.00E+00  0.00E+00  6.82E-06  5.38E-04  8.61E-03  0.37668
    890.  11.236  6.49E-06  5.14E-04  0.00E+00  0.00E+00  0.00E+00  0.00E+00  6.49E-06  5.14E-04  8.63E-03  0.40376
    892.  11.211  5.68E-06  4.52E-04  0.00E+00  0.00E+00  0.00E+00  0.00E+00  5.68E-06  4.52E-04  8.64E-03  0.47422
    894.  11.186  5.40E-06  4.31E-04  0.00E+00  0.00E+00  0.00E+00  0.00E+00  5.40E-06  4.31E-04  8.65E-03  0.49850
    896.  11.161  5.46E-06  4.39E-04  0.00E+00  0.00E+00  0.00E+00  0.00E+00  5.46E-06  4.39E-04  8.66E-03  0.48903
    898.  11.136  5.66E-06  4.56E-04  0.00E+00  0.00E+00  0.00E+00  0.00E+00  5.66E-06  4.56E-04  8.67E-03  0.47225
1                                             RADIANCE(WATTS/CM2-STER-XXX)
0  FREQ   WAVLEN    PATH THERMAL      SURFACE EMISSION    SURFACE REFLECTED     TOTAL RADIANCE   INTEGRAL    TOTAL
  (CM-1) (MICRN)    (CM-1)   (MICRN)    (CM-1)   (MICRN)    (CM-1)   (MICRN)    (CM-1)   (MICRN)    (CM-1)   TRANS

    900.  11.111  5.26E-06  4.26E-04  0.00E+00  0.00E+00  0.00E+00  0.00E+00  5.26E-06  4.26E-04  8.68E-03  0.50742
    902.  11.086  5.26E-06  4.28E-04  0.00E+00  0.00E+00  0.00E+00  0.00E+00  5.26E-06  4.28E-04  8.69E-03  0.50587
    904.  11.062  5.27E-06  4.31E-04  0.00E+00  0.00E+00  0.00E+00  0.00E+00  5.27E-06  4.31E-04  8.70E-03  0.50258
    906.  11.038  5.85E-06  4.80E-04  0.00E+00  0.00E+00  0.00E+00  0.00E+00  5.85E-06  4.80E-04  8.71E-03  0.44902
    908.  11.013  6.31E-06  5.20E-04  0.00E+00  0.00E+00  0.00E+00  0.00E+00  6.31E-06  5.20E-04  8.73E-03  0.40504
    910.  10.989  6.20E-06  5.13E-04  0.00E+00  0.00E+00  0.00E+00  0.00E+00  6.20E-06  5.13E-04  8.74E-03  0.41339
    912.  10.965  5.18E-06  4.31E-04  0.00E+00  0.00E+00  0.00E+00  0.00E+00  5.18E-06  4.31E-04  8.75E-03  0.50439
    914.  10.941  5.49E-06  4.59E-04  0.00E+00  0.00E+00  0.00E+00  0.00E+00  5.49E-06  4.59E-04  8.76E-03  0.47455
    916.  10.917  5.03E-06  4.22E-04  0.00E+00  0.00E+00  0.00E+00  0.00E+00  5.03E-06  4.22E-04  8.77E-03  0.51556
    918.  10.893  5.49E-06  4.62E-04  0.00E+00  0.00E+00  0.00E+00  0.00E+00  5.49E-06  4.62E-04  8.78E-03  0.47156
    920.  10.870  5.17E-06  4.37E-04  0.00E+00  0.00E+00  0.00E+00  0.00E+00  5.17E-06  4.37E-04  8.79E-03  0.49976
    922.  10.846  6.38E-06  5.42E-04  0.00E+00  0.00E+00  0.00E+00  0.00E+00  6.38E-06  5.42E-04  8.80E-03  0.38596
    924.  10.823  5.67E-06  4.84E-04  0.00E+00  0.00E+00  0.00E+00  0.00E+00  5.67E-06  4.84E-04  8.82E-03  0.44873
    926.  10.799  5.44E-06  4.67E-04  0.00E+00  0.00E+00  0.00E+00  0.00E+00  5.44E-06  4.67E-04  8.83E-03  0.46938
    928.  10.776  5.02E-06  4.32E-04  0.00E+00  0.00E+00  0.00E+00  0.00E+00  5.02E-06  4.32E-04  8.84E-03  0.50658
    930.  10.753  4.98E-06  4.31E-04  0.00E+00  0.00E+00  0.00E+00  0.00E+00  4.98E-06  4.31E-04  8.85E-03  0.50798
    932.  10.730  4.84E-06  4.20E-04  0.00E+00  0.00E+00  0.00E+00  0.00E+00  4.84E-06  4.20E-04  8.86E-03  0.52081
    934.  10.707  4.74E-06  4.13E-04  0.00E+00  0.00E+00  0.00E+00  0.00E+00  4.74E-06  4.13E-04  8.87E-03  0.52946
    936.  10.684  4.75E-06  4.16E-04  0.00E+00  0.00E+00  0.00E+00  0.00E+00  4.75E-06  4.16E-04  8.87E-03  0.52705
    938.  10.661  4.72E-06  4.15E-04  0.00E+00  0.00E+00  0.00E+00  0.00E+00  4.72E-06  4.15E-04  8.88E-03  0.52779
    940.  10.638  4.83E-06  4.27E-04  0.00E+00  0.00E+00  0.00E+00  0.00E+00  4.83E-06  4.27E-04  8.89E-03  0.51506
    942.  10.616  4.87E-06  4.32E-04  0.00E+00  0.00E+00  0.00E+00  0.00E+00  4.87E-06  4.32E-04  8.90E-03  0.50792
    944.  10.593  4.87E-06  4.34E-04  0.00E+00  0.00E+00  0.00E+00  0.00E+00  4.87E-06  4.34E-04  8.91E-03  0.50671
    946.  10.571  4.86E-06  4.35E-04  0.00E+00  0.00E+00  0.00E+00  0.00E+00  4.86E-06  4.35E-04  8.92E-03  0.50606
    948.  10.549  5.87E-06  5.27E-04  0.00E+00  0.00E+00  0.00E+00  0.00E+00  5.87E-06  5.27E-04  8.93E-03  0.40639
    950.  10.526  4.56E-06  4.12E-04  0.00E+00  0.00E+00  0.00E+00  0.00E+00  4.56E-06  4.12E-04  8.94E-03  0.53215
    952.  10.504  4.73E-06  4.29E-04  0.00E+00  0.00E+00  0.00E+00  0.00E+00  4.73E-06  4.29E-04  8.95E-03  0.51500
    954.  10.482  5.09E-06  4.63E-04  0.00E+00  0.00E+00  0.00E+00  0.00E+00  5.09E-06  4.63E-04  8.96E-03  0.47734
    956.  10.460  4.98E-06  4.55E-04  0.00E+00  0.00E+00  0.00E+00  0.00E+00  4.98E-06  4.55E-04  8.97E-03  0.48583
    958.  10.438  4.38E-06  4.02E-04  0.00E+00  0.00E+00  0.00E+00  0.00E+00  4.38E-06  4.02E-04  8.98E-03  0.54641
    960.  10.417  4.64E-06  4.27E-04  0.00E+00  0.00E+00  0.00E+00  0.00E+00  4.64E-06  4.27E-04  8.99E-03  0.51953
    962.  10.395  4.22E-06  3.90E-04  0.00E+00  0.00E+00  0.00E+00  0.00E+00  4.22E-06  3.90E-04  9.00E-03  0.56016
    964.  10.373  4.10E-06  3.81E-04  0.00E+00  0.00E+00  0.00E+00  0.00E+00  4.10E-06  3.81E-04  9.01E-03  0.57011
    966.  10.352  4.62E-06  4.31E-04  0.00E+00  0.00E+00  0.00E+00  0.00E+00  4.62E-06  4.31E-04  9.02E-03  0.51270
    968.  10.331  4.39E-06  4.11E-04  0.00E+00  0.00E+00  0.00E+00  0.00E+00  4.39E-06  4.11E-04  9.03E-03  0.53368
    970.  10.309  4.49E-06  4.22E-04  0.00E+00  0.00E+00  0.00E+00  0.00E+00  4.49E-06  4.22E-04  9.04E-03  0.52260
    972.  10.288  5.20E-06  4.91E-04  0.00E+00  0.00E+00  0.00E+00  0.00E+00  5.20E-06  4.91E-04  9.05E-03  0.44422
    974.  10.267  4.82E-06  4.57E-04  0.00E+00  0.00E+00  0.00E+00  0.00E+00  4.82E-06  4.57E-04  9.06E-03  0.48407
    976.  10.246  5.13E-06  4.88E-04  0.00E+00  0.00E+00  0.00E+00  0.00E+00  5.13E-06  4.88E-04  9.07E-03  0.44786
    978.  10.225  4.30E-06  4.12E-04  0.00E+00  0.00E+00  0.00E+00  0.00E+00  4.30E-06  4.12E-04  9.07E-03  0.53209
    980.  10.204  3.99E-06  3.83E-04  0.00E+00  0.00E+00  0.00E+00  0.00E+00  3.99E-06  3.83E-04  9.08E-03  0.56320
    982.  10.183  4.00E-06  3.86E-04  0.00E+00  0.00E+00  0.00E+00  0.00E+00  4.00E-06  3.86E-04  9.09E-03  0.55867
    984.  10.163  4.08E-06  3.95E-04  0.00E+00  0.00E+00  0.00E+00  0.00E+00  4.08E-06  3.95E-04  9.10E-03  0.54847
    986.  10.142  3.71E-06  3.61E-04  0.00E+00  0.00E+00  0.00E+00  0.00E+00  3.71E-06  3.61E-04  9.11E-03  0.58497
    988.  10.121  3.70E-06  3.61E-04  0.00E+00  0.00E+00  0.00E+00  0.00E+00  3.70E-06  3.61E-04  9.11E-03  0.58094
    990.  10.101  3.76E-06  3.69E-04  0.00E+00  0.00E+00  0.00E+00  0.00E+00  3.76E-06  3.69E-04  9.12E-03  0.56901
    992.  10.081  3.65E-06  3.59E-04  0.00E+00  0.00E+00  0.00E+00  0.00E+00  3.65E-06  3.59E-04  9.13E-03  0.57282
    994.  10.060  3.68E-06  3.64E-04  0.00E+00  0.00E+00  0.00E+00  0.00E+00  3.68E-06  3.64E-04  9.14E-03  0.56231
    996.  10.040  3.65E-06  3.62E-04  0.00E+00  0.00E+00  0.00E+00  0.00E+00  3.65E-06  3.62E-04  9.14E-03  0.55589
    998.  10.020  3.94E-06  3.92E-04  0.00E+00  0.00E+00  0.00E+00  0.00E+00  3.94E-06  3.92E-04  9.15E-03  0.51179
1                                             RADIANCE(WATTS/CM2-STER-XXX)
0  FREQ   WAVLEN    PATH THERMAL      SURFACE EMISSION    SURFACE REFLECTED     TOTAL RADIANCE   INTEGRAL    TOTAL
  (CM-1) (MICRN)    (CM-1)   (MICRN)    (CM-1)   (MICRN)    (CM-1)   (MICRN)    (CM-1)   (MICRN)    (CM-1)   TRANS

   1000.  10.000  4.42E-06  4.42E-04  0.00E+00  0.00E+00  0.00E+00  0.00E+00  4.42E-06  4.42E-04  9.16E-03  0.45542
   1002.   9.980  3.75E-06  3.77E-04  0.00E+00  0.00E+00  0.00E+00  0.00E+00  3.75E-06  3.77E-04  9.17E-03  0.50212
   1004.   9.960  4.20E-06  4.24E-04  0.00E+00  0.00E+00  0.00E+00  0.00E+00  4.20E-06  4.24E-04  9.18E-03  0.44777
   1006.   9.940  3.79E-06  3.84E-04  0.00E+00  0.00E+00  0.00E+00  0.00E+00  3.79E-06  3.84E-04  9.18E-03  0.46650
   1008.   9.921  3.81E-06  3.87E-04  0.00E+00  0.00E+00  0.00E+00  0.00E+00  3.81E-06  3.87E-04  9.19E-03  0.45714
   1010.   9.901  4.84E-06  4.94E-04  0.00E+00  0.00E+00  0.00E+00  0.00E+00  4.84E-06  4.94E-04  9.20E-03  0.35337
   1012.   9.881  4.25E-06  4.36E-04  0.00E+00  0.00E+00  0.00E+00  0.00E+00  4.25E-06  4.36E-04  9.21E-03  0.38397
   1014.   9.862  5.03E-06  5.17E-04  0.00E+00  0.00E+00  0.00E+00  0.00E+00  5.03E-06  5.17E-04  9.22E-03  0.30988
   1016.   9.843  4.14E-06  4.28E-04  0.00E+00  0.00E+00  0.00E+00  0.00E+00  4.14E-06  4.28E-04  9.23E-03  0.37130
   1018.   9.823  4.92E-06  5.10E-04  0.00E+00  0.00E+00  0.00E+00  0.00E+00  4.92E-06  5.10E-04  9.24E-03  0.28600
   1020.   9.804  4.03E-06  4.19E-04  0.00E+00  0.00E+00  0.00E+00  0.00E+00  4.03E-06  4.19E-04  9.24E-03  0.34182
   1022.   9.785  4.05E-06  4.23E-04  0.00E+00  0.00E+00  0.00E+00  0.00E+00  4.05E-06  4.23E-04  9.25E-03  0.32524
   1024.   9.766  3.92E-06  4.11E-04  0.00E+00  0.00E+00  0.00E+00  0.00E+00  3.92E-06  4.11E-04  9.26E-03  0.32694
   1026.   9.747  3.90E-06  4.10E-04  0.00E+00  0.00E+00  0.00E+00  0.00E+00  3.90E-06  4.10E-04  9.27E-03  0.33534
   1028.   9.728  5.10E-06  5.39E-04  0.00E+00  0.00E+00  0.00E+00  0.00E+00  5.10E-06  5.39E-04  9.28E-03  0.24379
   1030.   9.709  4.97E-06  5.28E-04  0.00E+00  0.00E+00  0.00E+00  0.00E+00  4.97E-06  5.28E-04  9.29E-03  0.24083
   1032.   9.690  4.25E-06  4.53E-04  0.00E+00  0.00E+00  0.00E+00  0.00E+00  4.25E-06  4.53E-04  9.30E-03  0.29791
   1034.   9.671  3.90E-06  4.17E-04  0.00E+00  0.00E+00  0.00E+00  0.00E+00  3.90E-06  4.17E-04  9.31E-03  0.31498
   1036.   9.653  3.88E-06  4.16E-04  0.00E+00  0.00E+00  0.00E+00  0.00E+00  3.88E-06  4.16E-04  9.31E-03  0.29568
   1038.   9.634  4.29E-06  4.63E-04  0.00E+00  0.00E+00  0.00E+00  0.00E+00  4.29E-06  4.63E-04  9.32E-03  0.25666
   1040.   9.615  4.44E-06  4.80E-04  0.00E+00  0.00E+00  0.00E+00  0.00E+00  4.44E-06  4.80E-04  9.33E-03  0.22748
   1042.   9.597  3.76E-06  4.08E-04  0.00E+00  0.00E+00  0.00E+00  0.00E+00  3.76E-06  4.08E-04  9.34E-03  0.37693
   1044.   9.579  3.47E-06  3.78E-04  0.00E+00  0.00E+00  0.00E+00  0.00E+00  3.47E-06  3.78E-04  9.34E-03  0.49123
   1046.   9.560  3.60E-06  3.94E-04  0.00E+00  0.00E+00  0.00E+00  0.00E+00  3.60E-06  3.94E-04  9.35E-03  0.37475
   1048.   9.542  4.12E-06  4.52E-04  0.00E+00  0.00E+00  0.00E+00  0.00E+00  4.12E-06  4.52E-04  9.36E-03  0.26963
   1050.   9.524  4.74E-06  5.23E-04  0.00E+00  0.00E+00  0.00E+00  0.00E+00  4.74E-06  5.23E-04  9.37E-03  0.21953
   1052.   9.506  4.44E-06  4.92E-04  0.00E+00  0.00E+00  0.00E+00  0.00E+00  4.44E-06  4.92E-04  9.38E-03  0.21654
   1054.   9.488  4.13E-06  4.59E-04  0.00E+00  0.00E+00  0.00E+00  0.00E+00  4.13E-06  4.59E-04  9.39E-03  0.23149
   1056.   9.470  4.58E-06  5.11E-04  0.00E+00  0.00E+00  0.00E+00  0.00E+00  4.58E-06  5.11E-04  9.40E-03  0.20217
   1058.   9.452  4.07E-06  4.56E-04  0.00E+00  0.00E+00  0.00E+00  0.00E+00  4.07E-06  4.56E-04  9.40E-03  0.25773
   1060.   9.434  4.48E-06  5.03E-04  0.00E+00  0.00E+00  0.00E+00  0.00E+00  4.48E-06  5.03E-04  9.41E-03  0.25846
   1062.   9.416  3.99E-06  4.50E-04  0.00E+00  0.00E+00  0.00E+00  0.00E+00  3.99E-06  4.50E-04  9.42E-03  0.31345
   1064.   9.398  3.68E-06  4.17E-04  0.00E+00  0.00E+00  0.00E+00  0.00E+00  3.68E-06  4.17E-04  9.43E-03  0.39534
   1066.   9.381  5.23E-06  5.94E-04  0.00E+00  0.00E+00  0.00E+00  0.00E+00  5.23E-06  5.94E-04  9.44E-03  0.28722
   1068.   9.363  3.48E-06  3.97E-04  0.00E+00  0.00E+00  0.00E+00  0.00E+00  3.48E-06  3.97E-04  9.45E-03  0.49403
   1070.   9.346  3.07E-06  3.51E-04  0.00E+00  0.00E+00  0.00E+00  0.00E+00  3.07E-06  3.51E-04  9.45E-03  0.56925
   1072.   9.328  3.37E-06  3.87E-04  0.00E+00  0.00E+00  0.00E+00  0.00E+00  3.37E-06  3.87E-04  9.46E-03  0.54433
   1074.   9.311  4.71E-06  5.44E-04  0.00E+00  0.00E+00  0.00E+00  0.00E+00  4.71E-06  5.44E-04  9.47E-03  0.38057
   1076.   9.294  3.59E-06  4.15E-04  0.00E+00  0.00E+00  0.00E+00  0.00E+00  3.59E-06  4.15E-04  9.48E-03  0.50882
   1078.   9.276  2.92E-06  3.40E-04  0.00E+00  0.00E+00  0.00E+00  0.00E+00  2.92E-06  3.40E-04  9.48E-03  0.60028
   1080.   9.259  3.14E-06  3.66E-04  0.00E+00  0.00E+00  0.00E+00  0.00E+00  3.14E-06  3.66E-04  9.49E-03  0.56220
   1082.   9.242  3.07E-06  3.60E-04  0.00E+00  0.00E+00  0.00E+00  0.00E+00  3.07E-06  3.60E-04  9.49E-03  0.57010
   1084.   9.225  3.02E-06  3.55E-04  0.00E+00  0.00E+00  0.00E+00  0.00E+00  3.02E-06  3.55E-04  9.50E-03  0.58422
   1086.   9.208  3.11E-06  3.66E-04  0.00E+00  0.00E+00  0.00E+00  0.00E+00  3.11E-06  3.66E-04  9.51E-03  0.56648
   1088.   9.191  2.94E-06  3.47E-04  0.00E+00  0.00E+00  0.00E+00  0.00E+00  2.94E-06  3.47E-04  9.51E-03  0.58833
   1090.   9.174  3.50E-06  4.15E-04  0.00E+00  0.00E+00  0.00E+00  0.00E+00  3.50E-06  4.15E-04  9.52E-03  0.52067
   1092.   9.158  3.75E-06  4.47E-04  0.00E+00  0.00E+00  0.00E+00  0.00E+00  3.75E-06  4.47E-04  9.53E-03  0.48816
   1094.   9.141  2.62E-06  3.14E-04  0.00E+00  0.00E+00  0.00E+00  0.00E+00  2.62E-06  3.14E-04  9.53E-03  0.62840
   1096.   9.124  2.55E-06  3.07E-04  0.00E+00  0.00E+00  0.00E+00  0.00E+00  2.55E-06  3.07E-04  9.54E-03  0.64016
   1098.   9.107  2.76E-06  3.33E-04  0.00E+00  0.00E+00  0.00E+00  0.00E+00  2.76E-06  3.33E-04  9.54E-03  0.60974
1                                             RADIANCE(WATTS/CM2-STER-XXX)
0  FREQ   WAVLEN    PATH THERMAL      SURFACE EMISSION    SURFACE REFLECTED     TOTAL RADIANCE   INTEGRAL    TOTAL
  (CM-1) (MICRN)    (CM-1)   (MICRN)    (CM-1)   (MICRN)    (CM-1)   (MICRN)    (CM-1)   (MICRN)    (CM-1)   TRANS

   1100.   9.091  4.75E-06  5.75E-04  0.00E+00  0.00E+00  0.00E+00  0.00E+00  4.75E-06  5.75E-04  9.55E-03  0.35172
   1102.   9.074  3.69E-06  4.48E-04  0.00E+00  0.00E+00  0.00E+00  0.00E+00  3.69E-06  4.48E-04  9.56E-03  0.48381
   1104.   9.058  2.65E-06  3.23E-04  0.00E+00  0.00E+00  0.00E+00  0.00E+00  2.65E-06  3.23E-04  9.56E-03  0.62138
   1106.   9.042  4.16E-06  5.09E-04  0.00E+00  0.00E+00  0.00E+00  0.00E+00  4.16E-06  5.09E-04  9.57E-03  0.42133
   1108.   9.025  3.66E-06  4.49E-04  0.00E+00  0.00E+00  0.00E+00  0.00E+00  3.66E-06  4.49E-04  9.58E-03  0.48757
   1110.   9.009  2.96E-06  3.64E-04  0.00E+00  0.00E+00  0.00E+00  0.00E+00  2.96E-06  3.64E-04  9.59E-03  0.57421
   1112.   8.993  4.46E-06  5.51E-04  0.00E+00  0.00E+00  0.00E+00  0.00E+00  4.46E-06  5.51E-04  9.59E-03  0.37534
   1114.   8.977  2.56E-06  3.18E-04  0.00E+00  0.00E+00  0.00E+00  0.00E+00  2.56E-06  3.18E-04  9.60E-03  0.62271
   1116.   8.961  2.51E-06  3.12E-04  0.00E+00  0.00E+00  0.00E+00  0.00E+00  2.51E-06  3.12E-04  9.60E-03  0.62989
   1118.   8.945  3.03E-06  3.79E-04  0.00E+00  0.00E+00  0.00E+00  0.00E+00  3.03E-06  3.79E-04  9.61E-03  0.55086
   1120.   8.929  3.86E-06  4.84E-04  0.00E+00  0.00E+00  0.00E+00  0.00E+00  3.86E-06  4.84E-04  9.62E-03  0.44548
   1122.   8.913  4.13E-06  5.19E-04  0.00E+00  0.00E+00  0.00E+00  0.00E+00  4.13E-06  5.19E-04  9.63E-03  0.40435
   1124.   8.897  2.55E-06  3.23E-04  0.00E+00  0.00E+00  0.00E+00  0.00E+00  2.55E-06  3.23E-04  9.63E-03  0.61061
   1126.   8.881  2.39E-06  3.03E-04  0.00E+00  0.00E+00  0.00E+00  0.00E+00  2.39E-06  3.03E-04  9.64E-03  0.63301
   1128.   8.865  2.33E-06  2.96E-04  0.00E+00  0.00E+00  0.00E+00  0.00E+00  2.33E-06  2.96E-04  9.64E-03  0.64285
   1130.   8.850  2.47E-06  3.15E-04  0.00E+00  0.00E+00  0.00E+00  0.00E+00  2.47E-06  3.15E-04  9.65E-03  0.62038
   1132.   8.834  2.54E-06  3.26E-04  0.00E+00  0.00E+00  0.00E+00  0.00E+00  2.54E-06  3.26E-04  9.65E-03  0.61032
   1134.   8.818  3.88E-06  4.99E-04  0.00E+00  0.00E+00  0.00E+00  0.00E+00  3.88E-06  4.99E-04  9.66E-03  0.41837
   1136.   8.803  6.46E-06  8.33E-04  0.00E+00  0.00E+00  0.00E+00  0.00E+00  6.46E-06  8.33E-04  9.67E-03  0.07997
   1138.   8.787  4.33E-06  5.61E-04  0.00E+00  0.00E+00  0.00E+00  0.00E+00  4.33E-06  5.61E-04  9.68E-03  0.35398
   1140.   8.772  2.54E-06  3.30E-04  0.00E+00  0.00E+00  0.00E+00  0.00E+00  2.54E-06  3.30E-04  9.69E-03  0.60664
   1142.   8.757  2.74E-06  3.57E-04  0.00E+00  0.00E+00  0.00E+00  0.00E+00  2.74E-06  3.57E-04  9.69E-03  0.57544
   1144.   8.741  2.35E-06  3.08E-04  0.00E+00  0.00E+00  0.00E+00  0.00E+00  2.35E-06  3.08E-04  9.70E-03  0.62854
   1146.   8.726  2.37E-06  3.11E-04  0.00E+00  0.00E+00  0.00E+00  0.00E+00  2.37E-06  3.11E-04  9.70E-03  0.62333
   1148.   8.711  3.40E-06  4.48E-04  0.00E+00  0.00E+00  0.00E+00  0.00E+00  3.40E-06  4.48E-04  9.71E-03  0.47421
   1150.   8.696  4.12E-06  5.45E-04  0.00E+00  0.00E+00  0.00E+00  0.00E+00  4.12E-06  5.45E-04  9.72E-03  0.36376
   1152.   8.681  4.81E-06  6.38E-04  0.00E+00  0.00E+00  0.00E+00  0.00E+00  4.81E-06  6.38E-04  9.73E-03  0.26865
   1154.   8.666  2.84E-06  3.78E-04  0.00E+00  0.00E+00  0.00E+00  0.00E+00  2.84E-06  3.78E-04  9.73E-03  0.54204
   1156.   8.651  2.33E-06  3.12E-04  0.00E+00  0.00E+00  0.00E+00  0.00E+00  2.33E-06  3.12E-04  9.74E-03  0.61495
   1158.   8.636  2.25E-06  3.01E-04  0.00E+00  0.00E+00  0.00E+00  0.00E+00  2.25E-06  3.01E-04  9.74E-03  0.62732
   1160.   8.621  2.26E-06  3.04E-04  0.00E+00  0.00E+00  0.00E+00  0.00E+00  2.26E-06  3.04E-04  9.74E-03  0.62332
   1162.   8.606  2.33E-06  3.14E-04  0.00E+00  0.00E+00  0.00E+00  0.00E+00  2.33E-06  3.14E-04  9.75E-03  0.61351
   1164.   8.591  3.65E-06  4.94E-04  0.00E+00  0.00E+00  0.00E+00  0.00E+00  3.65E-06  4.94E-04  9.76E-03  0.42005
   1166.   8.576  4.74E-06  6.45E-04  0.00E+00  0.00E+00  0.00E+00  0.00E+00  4.74E-06  6.45E-04  9.77E-03  0.25767
   1168.   8.562  2.38E-06  3.25E-04  0.00E+00  0.00E+00  0.00E+00  0.00E+00  2.38E-06  3.25E-04  9.77E-03  0.61006
   1170.   8.547  2.59E-06  3.55E-04  0.00E+00  0.00E+00  0.00E+00  0.00E+00  2.59E-06  3.55E-04  9.78E-03  0.57200
   1172.   8.532  3.20E-06  4.39E-04  0.00E+00  0.00E+00  0.00E+00  0.00E+00  3.20E-06  4.39E-04  9.78E-03  0.47048
   1174.   8.518  5.99E-06  8.25E-04  0.00E+00  0.00E+00  0.00E+00  0.00E+00  5.99E-06  8.25E-04  9.79E-03  0.07811
   1176.   8.503  4.65E-06  6.42E-04  0.00E+00  0.00E+00  0.00E+00  0.00E+00  4.65E-06  6.42E-04  9.80E-03  0.25218
   1178.   8.489  2.84E-06  3.94E-04  0.00E+00  0.00E+00  0.00E+00  0.00E+00  2.84E-06  3.94E-04  9.81E-03  0.51687
   1180.   8.475  2.78E-06  3.87E-04  0.00E+00  0.00E+00  0.00E+00  0.00E+00  2.78E-06  3.87E-04  9.82E-03  0.52615
   1182.   8.460  2.48E-06  3.47E-04  0.00E+00  0.00E+00  0.00E+00  0.00E+00  2.48E-06  3.47E-04  9.82E-03  0.57284
   1184.   8.446  2.90E-06  4.07E-04  0.00E+00  0.00E+00  0.00E+00  0.00E+00  2.90E-06  4.07E-04  9.83E-03  0.50136
   1186.   8.432  4.47E-06  6.29E-04  0.00E+00  0.00E+00  0.00E+00  0.00E+00  4.47E-06  6.29E-04  9.83E-03  0.26599
   1188.   8.418  5.38E-06  7.59E-04  0.00E+00  0.00E+00  0.00E+00  0.00E+00  5.38E-06  7.59E-04  9.85E-03  0.13625
   1190.   8.403  3.05E-06  4.31E-04  0.00E+00  0.00E+00  0.00E+00  0.00E+00  3.05E-06  4.31E-04  9.85E-03  0.47155
   1192.   8.389  2.61E-06  3.70E-04  0.00E+00  0.00E+00  0.00E+00  0.00E+00  2.61E-06  3.70E-04  9.86E-03  0.54434
   1194.   8.375  2.62E-06  3.74E-04  0.00E+00  0.00E+00  0.00E+00  0.00E+00  2.62E-06  3.74E-04  9.86E-03  0.54504
   1196.   8.361  2.84E-06  4.06E-04  0.00E+00  0.00E+00  0.00E+00  0.00E+00  2.84E-06  4.06E-04  9.87E-03  0.50516
   1198.   8.347  5.10E-06  7.32E-04  0.00E+00  0.00E+00  0.00E+00  0.00E+00  5.10E-06  7.32E-04  9.88E-03  0.15484
1                                             RADIANCE(WATTS/CM2-STER-XXX)
0  FREQ   WAVLEN    PATH THERMAL      SURFACE EMISSION    SURFACE REFLECTED     TOTAL RADIANCE   INTEGRAL    TOTAL
  (CM-1) (MICRN)    (CM-1)   (MICRN)    (CM-1)   (MICRN)    (CM-1)   (MICRN)    (CM-1)   (MICRN)    (CM-1)   TRANS

   1200.   8.333  3.29E-06  4.73E-04  0.00E+00  0.00E+00  0.00E+00  0.00E+00  3.29E-06  4.73E-04  9.88E-03  0.43225
   1202.   8.319  2.18E-06  3.15E-04  0.00E+00  0.00E+00  0.00E+00  0.00E+00  2.18E-06  3.15E-04  9.89E-03  0.61015
   1204.   8.306  1.99E-06  2.89E-04  0.00E+00  0.00E+00  0.00E+00  0.00E+00  1.99E-06  2.89E-04  9.89E-03  0.64345
   1206.   8.292  3.01E-06  4.38E-04  0.00E+00  0.00E+00  0.00E+00  0.00E+00  3.01E-06  4.38E-04  9.90E-03  0.46754
   1208.   8.278  2.60E-06  3.80E-04  0.00E+00  0.00E+00  0.00E+00  0.00E+00  2.60E-06  3.80E-04  9.90E-03  0.53431
   1210.   8.264  4.01E-06  5.87E-04  0.00E+00  0.00E+00  0.00E+00  0.00E+00  4.01E-06  5.87E-04  9.91E-03  0.29823
   1212.   8.251  5.94E-06  8.72E-04  0.00E+00  0.00E+00  0.00E+00  0.00E+00  5.94E-06  8.72E-04  9.92E-03  0.01438
   1214.   8.237  4.28E-06  6.31E-04  0.00E+00  0.00E+00  0.00E+00  0.00E+00  4.28E-06  6.31E-04  9.93E-03  0.25310
   1216.   8.224  3.15E-06  4.65E-04  0.00E+00  0.00E+00  0.00E+00  0.00E+00  3.15E-06  4.65E-04  9.94E-03  0.42364
   1218.   8.210  4.49E-06  6.66E-04  0.00E+00  0.00E+00  0.00E+00  0.00E+00  4.49E-06  6.66E-04  9.95E-03  0.20856
   1220.   8.197  4.56E-06  6.78E-04  0.00E+00  0.00E+00  0.00E+00  0.00E+00  4.56E-06  6.78E-04  9.96E-03  0.18876
   1222.   8.183  3.74E-06  5.59E-04  0.00E+00  0.00E+00  0.00E+00  0.00E+00  3.74E-06  5.59E-04  9.96E-03  0.30589
   1224.   8.170  4.84E-06  7.25E-04  0.00E+00  0.00E+00  0.00E+00  0.00E+00  4.84E-06  7.25E-04  9.97E-03  0.13869
   1226.   8.157  5.40E-06  8.11E-04  0.00E+00  0.00E+00  0.00E+00  0.00E+00  5.40E-06  8.11E-04  9.98E-03  0.06758
   1228.   8.143  3.16E-06  4.76E-04  0.00E+00  0.00E+00  0.00E+00  0.00E+00  3.16E-06  4.76E-04  9.99E-03  0.40577
   1230.   8.130  2.77E-06  4.19E-04  0.00E+00  0.00E+00  0.00E+00  0.00E+00  2.77E-06  4.19E-04  1.00E-02  0.45280
   1232.   8.117  2.11E-06  3.21E-04  0.00E+00  0.00E+00  0.00E+00  0.00E+00  2.11E-06  3.21E-04  1.00E-02  0.59382
   1234.   8.104  2.16E-06  3.29E-04  0.00E+00  0.00E+00  0.00E+00  0.00E+00  2.16E-06  3.29E-04  1.00E-02  0.58238
   1236.   8.091  3.36E-06  5.13E-04  0.00E+00  0.00E+00  0.00E+00  0.00E+00  3.36E-06  5.13E-04  1.00E-02  0.33976
   1238.   8.078  3.76E-06  5.77E-04  0.00E+00  0.00E+00  0.00E+00  0.00E+00  3.76E-06  5.77E-04  1.00E-02  0.27742
   1240.   8.065  4.21E-06  6.48E-04  0.00E+00  0.00E+00  0.00E+00  0.00E+00  4.21E-06  6.48E-04  1.00E-02  0.20127
   1242.   8.052  4.17E-06  6.43E-04  0.00E+00  0.00E+00  0.00E+00  0.00E+00  4.17E-06  6.43E-04  1.00E-02  0.19708
   1244.   8.039  5.54E-06  8.57E-04  0.00E+00  0.00E+00  0.00E+00  0.00E+00  5.54E-06  8.57E-04  1.00E-02  0.00918
   1246.   8.026  4.20E-06  6.52E-04  0.00E+00  0.00E+00  0.00E+00  0.00E+00  4.20E-06  6.52E-04  1.01E-02  0.18422
   1248.   8.013  4.10E-06  6.38E-04  0.00E+00  0.00E+00  0.00E+00  0.00E+00  4.10E-06  6.38E-04  1.01E-02  0.19913
   1250.   8.000  3.56E-06  5.56E-04  0.00E+00  0.00E+00  0.00E+00  0.00E+00  3.56E-06  5.56E-04  1.01E-02  0.27131
   1252.   7.987  4.29E-06  6.72E-04  0.00E+00  0.00E+00  0.00E+00  0.00E+00  4.29E-06  6.72E-04  1.01E-02  0.15843
   1254.   7.974  4.44E-06  6.98E-04  0.00E+00  0.00E+00  0.00E+00  0.00E+00  4.44E-06  6.98E-04  1.01E-02  0.10809
   1256.   7.962  4.16E-06  6.56E-04  0.00E+00  0.00E+00  0.00E+00  0.00E+00  4.16E-06  6.56E-04  1.01E-02  0.16169
   1258.   7.949  5.01E-06  7.93E-04  0.00E+00  0.00E+00  0.00E+00  0.00E+00  5.01E-06  7.93E-04  1.01E-02  0.04154
   1260.   7.937  5.48E-06  8.70E-04  0.00E+00  0.00E+00  0.00E+00  0.00E+00  5.48E-06  8.70E-04  1.01E-02  0.00025
   1262.   7.924  5.08E-06  8.09E-04  0.00E+00  0.00E+00  0.00E+00  0.00E+00  5.08E-06  8.09E-04  1.01E-02  0.02350
   1264.   7.911  5.06E-06  8.08E-04  0.00E+00  0.00E+00  0.00E+00  0.00E+00  5.06E-06  8.08E-04  1.01E-02  0.02513
   1266.   7.899  5.33E-06  8.55E-04  0.00E+00  0.00E+00  0.00E+00  0.00E+00  5.33E-06  8.55E-04  1.01E-02  0.00155
   1268.   7.886  5.38E-06  8.66E-04  0.00E+00  0.00E+00  0.00E+00  0.00E+00  5.38E-06  8.66E-04  1.02E-02  0.00003
   1270.   7.874  5.37E-06  8.65E-04  0.00E+00  0.00E+00  0.00E+00  0.00E+00  5.37E-06  8.65E-04  1.02E-02  0.00004
   1272.   7.862  5.33E-06  8.62E-04  0.00E+00  0.00E+00  0.00E+00  0.00E+00  5.33E-06  8.62E-04  1.02E-02  0.00013
   1274.   7.849  4.89E-06  7.94E-04  0.00E+00  0.00E+00  0.00E+00  0.00E+00  4.89E-06  7.94E-04  1.02E-02  0.02266
   1276.   7.837  4.30E-06  7.01E-04  0.00E+00  0.00E+00  0.00E+00  0.00E+00  4.30E-06  7.01E-04  1.02E-02  0.08242
   1278.   7.825  4.09E-06  6.68E-04  0.00E+00  0.00E+00  0.00E+00  0.00E+00  4.09E-06  6.68E-04  1.02E-02  0.11915
   1280.   7.813  4.91E-06  8.04E-04  0.00E+00  0.00E+00  0.00E+00  0.00E+00  4.91E-06  8.04E-04  1.02E-02  0.02636
   1282.   7.800  4.72E-06  7.76E-04  0.00E+00  0.00E+00  0.00E+00  0.00E+00  4.72E-06  7.76E-04  1.02E-02  0.02801
   1284.   7.788  4.85E-06  7.99E-04  0.00E+00  0.00E+00  0.00E+00  0.00E+00  4.85E-06  7.99E-04  1.02E-02  0.01970
   1286.   7.776  4.97E-06  8.22E-04  0.00E+00  0.00E+00  0.00E+00  0.00E+00  4.97E-06  8.22E-04  1.02E-02  0.01084
   1288.   7.764  5.14E-06  8.52E-04  0.00E+00  0.00E+00  0.00E+00  0.00E+00  5.14E-06  8.52E-04  1.03E-02  0.00001
   1290.   7.752  5.02E-06  8.35E-04  0.00E+00  0.00E+00  0.00E+00  0.00E+00  5.02E-06  8.35E-04  1.03E-02  0.00139
   1292.   7.740  4.79E-06  8.00E-04  0.00E+00  0.00E+00  0.00E+00  0.00E+00  4.79E-06  8.00E-04  1.03E-02  0.01695
   1294.   7.728  4.60E-06  7.70E-04  0.00E+00  0.00E+00  0.00E+00  0.00E+00  4.60E-06  7.70E-04  1.03E-02  0.02132
   1296.   7.716  4.91E-06  8.25E-04  0.00E+00  0.00E+00  0.00E+00  0.00E+00  4.91E-06  8.25E-04  1.03E-02  0.00333
   1298.   7.704  4.63E-06  7.80E-04  0.00E+00  0.00E+00  0.00E+00  0.00E+00  4.63E-06  7.80E-04  1.03E-02  0.01952
1                                             RADIANCE(WATTS/CM2-STER-XXX)
0  FREQ   WAVLEN    PATH THERMAL      SURFACE EMISSION    SURFACE REFLECTED     TOTAL RADIANCE   INTEGRAL    TOTAL
  (CM-1) (MICRN)    (CM-1)   (MICRN)    (CM-1)   (MICRN)    (CM-1)   (MICRN)    (CM-1)   (MICRN)    (CM-1)   TRANS

   1300.   7.692  4.38E-06  7.40E-04  0.00E+00  0.00E+00  0.00E+00  0.00E+00  4.38E-06  7.40E-04  1.03E-02  0.03210
   1302.   7.680  4.49E-06  7.61E-04  0.00E+00  0.00E+00  0.00E+00  0.00E+00  4.49E-06  7.61E-04  1.03E-02  0.01742
   1304.   7.669  4.68E-06  7.96E-04  0.00E+00  0.00E+00  0.00E+00  0.00E+00  4.68E-06  7.96E-04  1.03E-02  0.00422
   1306.   7.657  4.83E-06  8.24E-04  0.00E+00  0.00E+00  0.00E+00  0.00E+00  4.83E-06  8.24E-04  1.03E-02  0.00027
   1308.   7.645  4.85E-06  8.30E-04  0.00E+00  0.00E+00  0.00E+00  0.00E+00  4.85E-06  8.30E-04  1.04E-02  0.00025
   1310.   7.634  4.78E-06  8.20E-04  0.00E+00  0.00E+00  0.00E+00  0.00E+00  4.78E-06  8.20E-04  1.04E-02  0.00104
   1312.   7.622  4.85E-06  8.35E-04  0.00E+00  0.00E+00  0.00E+00  0.00E+00  4.85E-06  8.35E-04  1.04E-02  0.00005
   1314.   7.610  4.85E-06  8.38E-04  0.00E+00  0.00E+00  0.00E+00  0.00E+00  4.85E-06  8.38E-04  1.04E-02  0.00000
   1316.   7.599  4.83E-06  8.37E-04  0.00E+00  0.00E+00  0.00E+00  0.00E+00  4.83E-06  8.37E-04  1.04E-02  0.00000
   1318.   7.587  4.81E-06  8.36E-04  0.00E+00  0.00E+00  0.00E+00  0.00E+00  4.81E-06  8.36E-04  1.04E-02  0.00000
   1320.   7.576  4.77E-06  8.32E-04  0.00E+00  0.00E+00  0.00E+00  0.00E+00  4.77E-06  8.32E-04  1.04E-02  0.00000
   1322.   7.564  4.69E-06  8.19E-04  0.00E+00  0.00E+00  0.00E+00  0.00E+00  4.69E-06  8.19E-04  1.04E-02  0.00008
   1324.   7.553  4.61E-06  8.08E-04  0.00E+00  0.00E+00  0.00E+00  0.00E+00  4.61E-06  8.08E-04  1.04E-02  0.00236
   1326.   7.541  4.53E-06  7.97E-04  0.00E+00  0.00E+00  0.00E+00  0.00E+00  4.53E-06  7.97E-04  1.04E-02  0.00385
   1328.   7.530  4.57E-06  8.06E-04  0.00E+00  0.00E+00  0.00E+00  0.00E+00  4.57E-06  8.06E-04  1.04E-02  0.00076
   1330.   7.519  4.54E-06  8.03E-04  0.00E+00  0.00E+00  0.00E+00  0.00E+00  4.54E-06  8.03E-04  1.05E-02  0.00230
   1332.   7.508  4.49E-06  7.97E-04  0.00E+00  0.00E+00  0.00E+00  0.00E+00  4.49E-06  7.97E-04  1.05E-02  0.00248
   1334.   7.496  4.53E-06  8.06E-04  0.00E+00  0.00E+00  0.00E+00  0.00E+00  4.53E-06  8.06E-04  1.05E-02  0.00011
   1336.   7.485  4.59E-06  8.19E-04  0.00E+00  0.00E+00  0.00E+00  0.00E+00  4.59E-06  8.19E-04  1.05E-02  0.00000
   1338.   7.474  4.60E-06  8.24E-04  0.00E+00  0.00E+00  0.00E+00  0.00E+00  4.60E-06  8.24E-04  1.05E-02  0.00000
   1340.   7.463  4.58E-06  8.23E-04  0.00E+00  0.00E+00  0.00E+00  0.00E+00  4.58E-06  8.23E-04  1.05E-02  0.00000
   1342.   7.452  4.51E-06  8.12E-04  0.00E+00  0.00E+00  0.00E+00  0.00E+00  4.51E-06  8.12E-04  1.05E-02  0.00000
   1344.   7.440  4.42E-06  7.98E-04  0.00E+00  0.00E+00  0.00E+00  0.00E+00  4.42E-06  7.98E-04  1.05E-02  0.00009
   1346.   7.429  4.38E-06  7.94E-04  0.00E+00  0.00E+00  0.00E+00  0.00E+00  4.38E-06  7.94E-04  1.05E-02  0.00019
   1348.   7.418  4.39E-06  7.97E-04  0.00E+00  0.00E+00  0.00E+00  0.00E+00  4.39E-06  7.97E-04  1.05E-02  0.00001
   1350.   7.407  4.39E-06  8.01E-04  0.00E+00  0.00E+00  0.00E+00  0.00E+00  4.39E-06  8.01E-04  1.05E-02  0.00001
   1352.   7.396  4.33E-06  7.91E-04  0.00E+00  0.00E+00  0.00E+00  0.00E+00  4.33E-06  7.91E-04  1.06E-02  0.00004
   1354.   7.386  4.36E-06  7.99E-04  0.00E+00  0.00E+00  0.00E+00  0.00E+00  4.36E-06  7.99E-04  1.06E-02  0.00000
   1356.   7.375  4.32E-06  7.94E-04  0.00E+00  0.00E+00  0.00E+00  0.00E+00  4.32E-06  7.94E-04  1.06E-02  0.00000
   1358.   7.364  4.30E-06  7.93E-04  0.00E+00  0.00E+00  0.00E+00  0.00E+00  4.30E-06  7.93E-04  1.06E-02  0.00000
   1360.   7.353  4.31E-06  7.98E-04  0.00E+00  0.00E+00  0.00E+00  0.00E+00  4.31E-06  7.98E-04  1.06E-02  0.00000
   1362.   7.342  4.32E-06  8.01E-04  0.00E+00  0.00E+00  0.00E+00  0.00E+00  4.32E-06  8.01E-04  1.06E-02  0.00000
   1364.   7.331  4.29E-06  7.99E-04  0.00E+00  0.00E+00  0.00E+00  0.00E+00  4.29E-06  7.99E-04  1.06E-02  0.00000
   1366.   7.321  4.23E-06  7.89E-04  0.00E+00  0.00E+00  0.00E+00  0.00E+00  4.23E-06  7.89E-04  1.06E-02  0.00000
   1368.   7.310  4.23E-06  7.92E-04  0.00E+00  0.00E+00  0.00E+00  0.00E+00  4.23E-06  7.92E-04  1.06E-02  0.00000
   1370.   7.299  4.20E-06  7.89E-04  0.00E+00  0.00E+00  0.00E+00  0.00E+00  4.20E-06  7.89E-04  1.06E-02  0.00000
   1372.   7.289  4.20E-06  7.90E-04  0.00E+00  0.00E+00  0.00E+00  0.00E+00  4.20E-06  7.90E-04  1.06E-02  0.00000
   1374.   7.278  4.19E-06  7.90E-04  0.00E+00  0.00E+00  0.00E+00  0.00E+00  4.19E-06  7.90E-04  1.06E-02  0.00000
   1376.   7.267  4.17E-06  7.90E-04  0.00E+00  0.00E+00  0.00E+00  0.00E+00  4.17E-06  7.90E-04  1.07E-02  0.00000
   1378.   7.257  4.12E-06  7.83E-04  0.00E+00  0.00E+00  0.00E+00  0.00E+00  4.12E-06  7.83E-04  1.07E-02  0.00000
   1380.   7.246  4.09E-06  7.78E-04  0.00E+00  0.00E+00  0.00E+00  0.00E+00  4.09E-06  7.78E-04  1.07E-02  0.00000
   1382.   7.236  4.05E-06  7.73E-04  0.00E+00  0.00E+00  0.00E+00  0.00E+00  4.05E-06  7.73E-04  1.07E-02  0.00000
   1384.   7.225  4.04E-06  7.74E-04  0.00E+00  0.00E+00  0.00E+00  0.00E+00  4.04E-06  7.74E-04  1.07E-02  0.00000
   1386.   7.215  4.05E-06  7.78E-04  0.00E+00  0.00E+00  0.00E+00  0.00E+00  4.05E-06  7.78E-04  1.07E-02  0.00000
   1388.   7.205  4.03E-06  7.77E-04  0.00E+00  0.00E+00  0.00E+00  0.00E+00  4.03E-06  7.77E-04  1.07E-02  0.00000
   1390.   7.194  4.01E-06  7.74E-04  0.00E+00  0.00E+00  0.00E+00  0.00E+00  4.01E-06  7.74E-04  1.07E-02  0.00000
   1392.   7.184  3.99E-06  7.73E-04  0.00E+00  0.00E+00  0.00E+00  0.00E+00  3.99E-06  7.73E-04  1.07E-02  0.00000
   1394.   7.174  3.98E-06  7.73E-04  0.00E+00  0.00E+00  0.00E+00  0.00E+00  3.98E-06  7.73E-04  1.07E-02  0.00000
   1396.   7.163  3.96E-06  7.72E-04  0.00E+00  0.00E+00  0.00E+00  0.00E+00  3.96E-06  7.72E-04  1.07E-02  0.00000
   1398.   7.153  3.94E-06  7.70E-04  0.00E+00  0.00E+00  0.00E+00  0.00E+00  3.94E-06  7.70E-04  1.07E-02  0.00000
1                                             RADIANCE(WATTS/CM2-STER-XXX)
0  FREQ   WAVLEN    PATH THERMAL      SURFACE EMISSION    SURFACE REFLECTED     TOTAL RADIANCE   INTEGRAL    TOTAL
  (CM-1) (MICRN)    (CM-1)   (MICRN)    (CM-1)   (MICRN)    (CM-1)   (MICRN)    (CM-1)   (MICRN)    (CM-1)   TRANS

   1400.   7.143  3.91E-06  7.66E-04  0.00E+00  0.00E+00  0.00E+00  0.00E+00  3.91E-06  7.66E-04  1.08E-02  0.00000
   1402.   7.133  3.88E-06  7.63E-04  0.00E+00  0.00E+00  0.00E+00  0.00E+00  3.88E-06  7.63E-04  1.08E-02  0.00000
   1404.   7.123  3.86E-06  7.61E-04  0.00E+00  0.00E+00  0.00E+00  0.00E+00  3.86E-06  7.61E-04  1.08E-02  0.00000
   1406.   7.112  3.84E-06  7.58E-04  0.00E+00  0.00E+00  0.00E+00  0.00E+00  3.84E-06  7.58E-04  1.08E-02  0.00000
   1408.   7.102  3.80E-06  7.53E-04  0.00E+00  0.00E+00  0.00E+00  0.00E+00  3.80E-06  7.53E-04  1.08E-02  0.00000
   1410.   7.092  3.79E-06  7.53E-04  0.00E+00  0.00E+00  0.00E+00  0.00E+00  3.79E-06  7.53E-04  1.08E-02  0.00000
   1412.   7.082  3.77E-06  7.52E-04  0.00E+00  0.00E+00  0.00E+00  0.00E+00  3.77E-06  7.52E-04  1.08E-02  0.00000
   1414.   7.072  3.75E-06  7.49E-04  0.00E+00  0.00E+00  0.00E+00  0.00E+00  3.75E-06  7.49E-04  1.08E-02  0.00000
   1416.   7.062  3.75E-06  7.52E-04  0.00E+00  0.00E+00  0.00E+00  0.00E+00  3.75E-06  7.52E-04  1.08E-02  0.00000
   1418.   7.052  3.73E-06  7.51E-04  0.00E+00  0.00E+00  0.00E+00  0.00E+00  3.73E-06  7.51E-04  1.08E-02  0.00000
   1420.   7.042  3.71E-06  7.48E-04  0.00E+00  0.00E+00  0.00E+00  0.00E+00  3.71E-06  7.48E-04  1.08E-02  0.00000
   1422.   7.032  3.69E-06  7.47E-04  0.00E+00  0.00E+00  0.00E+00  0.00E+00  3.69E-06  7.47E-04  1.08E-02  0.00000
   1424.   7.022  3.67E-06  7.44E-04  0.00E+00  0.00E+00  0.00E+00  0.00E+00  3.67E-06  7.44E-04  1.08E-02  0.00000
   1426.   7.013  3.65E-06  7.41E-04  0.00E+00  0.00E+00  0.00E+00  0.00E+00  3.65E-06  7.41E-04  1.08E-02  0.00000
   1428.   7.003  3.63E-06  7.39E-04  0.00E+00  0.00E+00  0.00E+00  0.00E+00  3.63E-06  7.39E-04  1.09E-02  0.00000
   1430.   6.993  3.60E-06  7.37E-04  0.00E+00  0.00E+00  0.00E+00  0.00E+00  3.60E-06  7.37E-04  1.09E-02  0.00000
   1432.   6.983  3.59E-06  7.37E-04  0.00E+00  0.00E+00  0.00E+00  0.00E+00  3.59E-06  7.37E-04  1.09E-02  0.00000
   1434.   6.974  3.58E-06  7.35E-04  0.00E+00  0.00E+00  0.00E+00  0.00E+00  3.58E-06  7.35E-04  1.09E-02  0.00000
   1436.   6.964  3.55E-06  7.33E-04  0.00E+00  0.00E+00  0.00E+00  0.00E+00  3.55E-06  7.33E-04  1.09E-02  0.00000
   1438.   6.954  3.53E-06  7.31E-04  0.00E+00  0.00E+00  0.00E+00  0.00E+00  3.53E-06  7.31E-04  1.09E-02  0.00000
   1440.   6.944  3.51E-06  7.28E-04  0.00E+00  0.00E+00  0.00E+00  0.00E+00  3.51E-06  7.28E-04  1.09E-02  0.00000
   1442.   6.935  3.48E-06  7.23E-04  0.00E+00  0.00E+00  0.00E+00  0.00E+00  3.48E-06  7.23E-04  1.09E-02  0.00000
   1444.   6.925  3.46E-06  7.22E-04  0.00E+00  0.00E+00  0.00E+00  0.00E+00  3.46E-06  7.22E-04  1.09E-02  0.00000
   1446.   6.916  3.46E-06  7.23E-04  0.00E+00  0.00E+00  0.00E+00  0.00E+00  3.46E-06  7.23E-04  1.09E-02  0.00000
   1448.   6.906  3.43E-06  7.20E-04  0.00E+00  0.00E+00  0.00E+00  0.00E+00  3.43E-06  7.20E-04  1.09E-02  0.00000
   1450.   6.897  3.42E-06  7.19E-04  0.00E+00  0.00E+00  0.00E+00  0.00E+00  3.42E-06  7.19E-04  1.09E-02  0.00000
   1452.   6.887  3.41E-06  7.18E-04  0.00E+00  0.00E+00  0.00E+00  0.00E+00  3.41E-06  7.18E-04  1.09E-02  0.00000
   1454.   6.878  3.38E-06  7.16E-04  0.00E+00  0.00E+00  0.00E+00  0.00E+00  3.38E-06  7.16E-04  1.09E-02  0.00000
   1456.   6.868  3.36E-06  7.13E-04  0.00E+00  0.00E+00  0.00E+00  0.00E+00  3.36E-06  7.13E-04  1.10E-02  0.00000
   1458.   6.859  3.34E-06  7.11E-04  0.00E+00  0.00E+00  0.00E+00  0.00E+00  3.34E-06  7.11E-04  1.10E-02  0.00000
   1460.   6.849  3.33E-06  7.10E-04  0.00E+00  0.00E+00  0.00E+00  0.00E+00  3.33E-06  7.10E-04  1.10E-02  0.00000
   1462.   6.840  3.32E-06  7.09E-04  0.00E+00  0.00E+00  0.00E+00  0.00E+00  3.32E-06  7.09E-04  1.10E-02  0.00000
   1464.   6.831  3.29E-06  7.06E-04  0.00E+00  0.00E+00  0.00E+00  0.00E+00  3.29E-06  7.06E-04  1.10E-02  0.00000
   1466.   6.821  3.27E-06  7.03E-04  0.00E+00  0.00E+00  0.00E+00  0.00E+00  3.27E-06  7.03E-04  1.10E-02  0.00000
   1468.   6.812  3.26E-06  7.02E-04  0.00E+00  0.00E+00  0.00E+00  0.00E+00  3.26E-06  7.02E-04  1.10E-02  0.00000
   1470.   6.803  3.24E-06  7.01E-04  0.00E+00  0.00E+00  0.00E+00  0.00E+00  3.24E-06  7.01E-04  1.10E-02  0.00000
   1472.   6.793  3.22E-06  6.97E-04  0.00E+00  0.00E+00  0.00E+00  0.00E+00  3.22E-06  6.97E-04  1.10E-02  0.00000
   1474.   6.784  3.20E-06  6.95E-04  0.00E+00  0.00E+00  0.00E+00  0.00E+00  3.20E-06  6.95E-04  1.10E-02  0.00000
   1476.   6.775  3.19E-06  6.94E-04  0.00E+00  0.00E+00  0.00E+00  0.00E+00  3.19E-06  6.94E-04  1.10E-02  0.00000
   1478.   6.766  3.17E-06  6.92E-04  0.00E+00  0.00E+00  0.00E+00  0.00E+00  3.17E-06  6.92E-04  1.10E-02  0.00000
   1480.   6.757  3.15E-06  6.90E-04  0.00E+00  0.00E+00  0.00E+00  0.00E+00  3.15E-06  6.90E-04  1.10E-02  0.00000
   1482.   6.748  3.13E-06  6.87E-04  0.00E+00  0.00E+00  0.00E+00  0.00E+00  3.13E-06  6.87E-04  1.10E-02  0.00000
   1484.   6.739  3.11E-06  6.86E-04  0.00E+00  0.00E+00  0.00E+00  0.00E+00  3.11E-06  6.86E-04  1.10E-02  0.00000
   1486.   6.729  3.10E-06  6.84E-04  0.00E+00  0.00E+00  0.00E+00  0.00E+00  3.10E-06  6.84E-04  1.11E-02  0.00000
   1488.   6.720  3.08E-06  6.82E-04  0.00E+00  0.00E+00  0.00E+00  0.00E+00  3.08E-06  6.82E-04  1.11E-02  0.00000
   1490.   6.711  3.06E-06  6.80E-04  0.00E+00  0.00E+00  0.00E+00  0.00E+00  3.06E-06  6.80E-04  1.11E-02  0.00000
   1492.   6.702  3.05E-06  6.78E-04  0.00E+00  0.00E+00  0.00E+00  0.00E+00  3.05E-06  6.78E-04  1.11E-02  0.00000
   1494.   6.693  3.03E-06  6.76E-04  0.00E+00  0.00E+00  0.00E+00  0.00E+00  3.03E-06  6.76E-04  1.11E-02  0.00000
   1496.   6.684  3.01E-06  6.74E-04  0.00E+00  0.00E+00  0.00E+00  0.00E+00  3.01E-06  6.74E-04  1.11E-02  0.00000
   1498.   6.676  3.00E-06  6.72E-04  0.00E+00  0.00E+00  0.00E+00  0.00E+00  3.00E-06  6.72E-04  1.11E-02  0.00000
1                                             RADIANCE(WATTS/CM2-STER-XXX)
0  FREQ   WAVLEN    PATH THERMAL      SURFACE EMISSION    SURFACE REFLECTED     TOTAL RADIANCE   INTEGRAL    TOTAL
  (CM-1) (MICRN)    (CM-1)   (MICRN)    (CM-1)   (MICRN)    (CM-1)   (MICRN)    (CM-1)   (MICRN)    (CM-1)   TRANS

   1500.   6.667  2.98E-06  6.70E-04  0.00E+00  0.00E+00  0.00E+00  0.00E+00  2.98E-06  6.70E-04  1.11E-02  0.00000
0INTEGRATED ABSORPTION FROM  100 TO 1500 CM-1 =   1196.11 CM-1
 AVERAGE TRANSMITTANCE =0.1456

0INTEGRATED RADIANCE =  1.109E-02 WATTS CM-2 STER-1
 MINIMUM RADIANCE    =  1.930E-06 WATTS CM-2 STER-1 (CM-1)-1 AT      100.0 CM-1
 MAXIMUM RADIANCE    =  1.518E-05 WATTS CM-2 STER-1 (CM-1)-1 AT      592.0 CM-1
 BOUNDARY TEMPERATURE =       0.00 K
 BOUNDARY EMISSIVITY =       0.980
0 CARD 5 *****    0
